
Integration time [ms]:   3.780
Averaging Nr. [scans]: 1
Smoothing Nr. [pixels]: 0
Data measured with spectrometer [name]: 1911294U1
Wave   ;Sample   ;Dark     ;Reference;Absorbance
[nm]   ;[counts] ;[counts] ;[counts] ;[A.U]

 860.61;  159.500;   67.750;  833.250; 0.92134
 864.82;  166.500;   49.750;  998.250; 0.90978
 869.02;  204.500;   59.750; 1169.250; 0.88451
 873.23;  219.500;   54.750; 1288.250; 0.87431
 877.43;  214.500;   53.750; 1415.250; 0.92787
 881.63;  224.500;   54.750; 1540.250; 0.94206
 885.83;  256.500;   49.750; 1684.250; 0.89794
 890.03;  261.500;   28.750; 1796.250; 0.88047
 894.23;  282.500;   40.750; 1929.250; 0.89275
 898.42;  306.500;   37.750; 2071.250; 0.87890
 902.62;  315.500;   56.750; 2213.250; 0.92087
 906.81;  325.500;   35.750; 2337.250; 0.89999
 911.00;  343.500;   53.750; 2523.250; 0.93059
 915.19;  396.500;   45.750; 2712.250; 0.88094
 919.38;  422.500;   47.750; 2963.250; 0.89097
 923.57;  452.500;   53.750; 3292.250; 0.90964
 927.76;  499.500;   40.750; 3728.250; 0.90516
 931.94;  546.500;   39.750; 4163.250; 0.91047
 936.13;  609.500;   53.750; 4579.250; 0.91079
 940.31;  630.500;   50.750; 4873.250; 0.92003
 944.49;  669.500;   63.750; 5167.250; 0.92557
 948.67;  688.500;   49.750; 5411.250; 0.92396
 952.85;  708.500;   50.750; 5679.250; 0.93233
 957.03;  751.500;   47.750; 5965.250; 0.92472
 961.21;  762.500;   58.750; 6236.250; 0.94339
 965.38;  793.500;   44.750; 6471.250; 0.93364
 969.55;  809.500;   37.750; 6719.250; 0.93740
 973.73;  865.500;   56.750; 6971.250; 0.93195
 977.90;  870.500;   42.750; 7222.250; 0.93820
 982.06;  918.500;   44.750; 7469.250; 0.92928
 986.23;  931.500;   51.750; 7739.250; 0.94143
 990.40;  979.500;   61.750; 7985.250; 0.93619
 994.56;  999.500;   65.750; 8243.250; 0.94239
 998.72; 1022.500;   58.750; 8450.250; 0.93988
1002.88; 1040.500;   57.750; 8670.250; 0.94269
1007.04; 1082.500;   52.750; 8879.250; 0.93306
1011.20; 1078.500;   49.750; 9068.250; 0.94282
1015.36; 1110.500;   45.750; 9257.250; 0.93708
1019.51; 1130.500;   60.750; 9402.250; 0.94113
1023.67; 1153.500;   69.750; 9574.250; 0.94300
1027.82; 1160.500;   61.750; 9729.250; 0.94442
1031.97; 1184.500;   55.750; 9851.250; 0.93843
1036.12; 1194.500;   49.750;10022.250; 0.94009
1040.27; 1208.500;   61.750;10174.250; 0.94539
1044.41; 1239.500;   73.750;10320.250; 0.94397
1048.56; 1243.500;   53.750;10468.250; 0.94218
1052.70; 1267.500;   58.750;10629.250; 0.94176
1056.84; 1284.500;   47.750;10798.250; 0.93915
1060.98; 1315.500;   67.750;10996.250; 0.94243
1065.11; 1338.500;   63.750;11181.250; 0.94058
1069.25; 1342.500;   63.750;11391.250; 0.94735
1073.38; 1382.500;   56.750;11632.250; 0.94108
1077.52; 1395.500;   70.750;11862.250; 0.94944
1081.65; 1432.500;   62.750;12105.250; 0.94408
1085.77; 1444.500;   60.750;12352.250; 0.94855
1089.90; 1468.500;   56.750;12603.250; 0.94876
1094.03; 1502.500;   65.750;12857.250; 0.94954
1098.15; 1536.500;   68.750;13146.250; 0.94987
1102.27; 1541.500;   66.750;13436.250; 0.95740
1106.39; 1591.500;   69.750;13733.250; 0.95322
1110.51; 1617.500;   69.750;14055.250; 0.95598
1114.63; 1654.500;   49.750;14464.250; 0.95339
1118.74; 1699.500;   73.750;14874.250; 0.95922
1122.85; 1719.500;   70.750;15167.250; 0.96172
1126.96; 1718.500;   61.750;15350.250; 0.96511
1131.07; 1733.500;   57.750;15457.250; 0.96330
1135.18; 1706.500;   63.750;15545.250; 0.97424
1139.29; 1684.500;   45.750;15604.250; 0.97746
1143.39; 1674.500;   62.750;15613.250; 0.98445
1147.49; 1630.500;   71.750;15592.250; 0.99813
1151.59; 1609.500;   71.750;15618.250; 1.00475
1155.69; 1604.500;   64.750;15618.250; 1.00438
1159.78; 1587.500;   61.750;15619.250; 1.00846
1163.88; 1580.500;   66.750;15654.250; 1.01272
1167.97; 1564.500;   60.750;15657.250; 1.01585
1172.06; 1555.500;   60.750;15668.250; 1.01876
1176.15; 1563.500;   53.750;15670.250; 1.01468
1180.23; 1562.500;   59.750;15679.250; 1.01678
1184.32; 1547.500;   50.750;15690.250; 1.01907
1188.40; 1549.500;   57.750;15712.250; 1.02094
1192.48; 1540.500;   55.750;15725.250; 1.02340
1196.56; 1556.500;   53.750;15754.250; 1.01903
1200.64; 1556.500;   72.750;15783.250; 1.02483
1204.71; 1566.500;   50.750;15806.250; 1.01680
1208.78; 1569.500;   69.750;15849.250; 1.02207
1212.85; 1571.500;   54.750;15854.250; 1.01773
1216.92; 1541.500;   37.750;15840.250; 1.02155
1220.99; 1567.500;   49.750;15897.250; 1.01876
1225.05; 1568.500;   60.750;15920.250; 1.02196
1229.11; 1579.500;   53.750;15924.250; 1.01711
1233.17; 1574.500;   58.750;15926.250; 1.01988
1237.23; 1577.500;   49.750;15943.250; 1.01717
1241.29; 1592.500;   51.750;15960.250; 1.01390
1245.34; 1611.500;   79.750;16029.250; 1.01756
1249.39; 1604.500;   55.750;16081.250; 1.01483
1253.44; 1592.500;   36.750;16122.250; 1.01449
1257.49; 1621.500;   73.750;16225.250; 1.01851
1261.53; 1609.500;   40.750;16273.250; 1.01483
1265.58; 1630.500;   46.750;16338.250; 1.01227
1269.62; 1631.500;   46.750;16412.250; 1.01397
1273.65; 1637.500;   55.750;16472.250; 1.01614
1277.69; 1647.500;   53.750;16552.250; 1.01502
1281.72; 1627.500;   65.750;16612.250; 1.02509
1285.76; 1646.500;   66.750;16662.250; 1.02140
1289.79; 1632.500;   56.750;16697.250; 1.02368
1293.81; 1631.500;   44.750;16713.250; 1.02139
1297.84; 1624.500;   49.750;16765.250; 1.02591
1301.86; 1630.500;   43.750;16807.250; 1.02386
1305.88; 1606.500;   58.750;16824.250; 1.03472
1309.90; 1599.500;   49.750;16842.250; 1.03485
1313.92; 1574.500;   55.750;16828.250; 1.04311
1317.93; 1571.500;   65.750;16838.250; 1.04684
1321.94; 1536.500;   46.750;16825.250; 1.05164
1325.95; 1516.500;   64.750;16797.250; 1.06167
1329.96; 1502.500;   63.750;16802.250; 1.06573
1333.96; 1460.500;   52.750;16773.250; 1.07472
1337.96; 1420.500;   63.750;16776.250; 1.09054
1341.96; 1405.500;   46.750;16748.250; 1.08962
1345.96; 1371.500;   59.750;16622.250; 1.10127
1349.95; 1324.500;   42.750;16410.250; 1.10618
1353.95; 1295.500;   67.750;16154.250; 1.11735
1357.94; 1255.500;   50.750;15843.250; 1.11755
1361.92; 1197.500;   50.750;15571.250; 1.13144
1365.91; 1156.500;   46.750;15308.250; 1.13837
1369.89; 1105.500;   50.750;15042.250; 1.15270
1373.87; 1018.500;   48.750;14460.250; 1.17205
1377.85;  930.500;   60.750;13607.250; 1.19243
1381.82;  809.500;   48.750;12795.250; 1.22415
1385.80;  727.500;   50.750;12441.250; 1.26266
1389.77;  631.500;   54.750;12376.250; 1.32968
1393.74;  552.500;   63.750;12523.250; 1.40641
1397.70;  498.500;   57.750;12861.250; 1.46314
1401.66;  429.500;   57.750;13177.250; 1.54767
1405.62;  380.500;   34.750;13448.250; 1.58878
1409.58;  326.500;   50.750;13653.250; 1.69310
1413.54;  291.500;   50.750;13787.250; 1.75631
1417.49;  252.500;   27.750;13838.250; 1.78851
1421.44;  265.500;   63.750;13894.250; 1.83602
1425.39;  237.500;   54.750;13879.250; 1.87879
1429.33;  238.500;   64.750;13864.250; 1.89994
1433.27;  230.500;   54.750;13809.250; 1.89355
1437.21;  209.500;   48.750;13776.250; 1.93144
1441.15;  223.500;   52.750;13748.250; 1.90422
1445.09;  209.500;   60.750;13691.250; 1.96205
1449.02;  196.500;   57.750;13611.250; 1.98982
1452.95;  214.500;   52.750;13536.250; 1.92096
1456.87;  199.500;   53.750;13439.250; 1.96303
1460.80;  190.500;   43.750;13345.250; 1.95732
1464.72;  211.500;   59.750;13253.250; 1.93923
1468.64;  201.500;   43.750;13131.250; 1.91889
1472.55;  228.500;   63.750;13051.250; 1.89670
1476.47;  212.500;   43.750;12969.250; 1.88420
1480.38;  220.500;   38.750;12870.250; 1.84880
1484.28;  236.500;   54.750;12750.250; 1.84418
1488.19;  259.500;   50.750;12663.250; 1.78117
1492.09;  245.500;   28.750;12533.250; 1.76111
1495.99;  285.500;   58.750;12434.250; 1.73702
1499.89;  275.500;   46.750;12320.250; 1.72961
1503.78;  285.500;   48.750;12228.250; 1.71134
1507.67;  314.500;   52.750;12113.250; 1.66348
1511.56;  315.500;   33.750;11982.250; 1.62745
1515.44;  335.500;   50.750;11884.250; 1.61865
1519.33;  358.500;   48.750;11757.250; 1.57749
1523.21;  353.500;   35.750;11649.250; 1.56288
1527.08;  380.500;   57.750;11506.250; 1.54988
1530.96;  370.500;   39.750;11368.250; 1.53467
1534.83;  400.500;   52.750;11249.250; 1.50782
1538.70;  404.500;   57.750;11082.250; 1.50234
1542.56;  399.500;   28.750;10958.250; 1.46952
1546.42;  419.500;   39.750;10836.250; 1.45379
1550.28;  424.500;   58.750;10683.250; 1.46312
1554.14;  443.500;   39.750;10510.250; 1.41385
1557.99;  443.500;   41.750;10388.250; 1.41084
1561.84;  454.500;   33.750;10234.250; 1.38460
1565.69;  448.500;   40.750;10095.250; 1.39197
1569.54;  449.500;   24.750; 9939.250; 1.36814
1573.38;  454.500;   40.750; 9804.250; 1.37287
1577.22;  456.500;   31.750; 9649.250; 1.35493
1581.05;  456.500;   49.750; 9522.250; 1.36714
1584.89;  461.500;   45.750; 9369.250; 1.35075
1588.72;  469.500;   41.750; 9215.250; 1.33135
1592.54;  470.500;   35.750; 9061.250; 1.31723
1596.37;  473.500;   22.750; 8908.250; 1.29475
1600.19;  479.500;   43.750; 8774.250; 1.30180
1604.01;  469.500;   33.750; 8610.250; 1.29407
1607.82;  451.500;   31.750; 8473.250; 1.30343
1611.63;  450.500;   22.750; 8316.250; 1.28755
1615.44;  473.500;   26.750; 8167.250; 1.26059
1619.25;  444.500;   34.750; 7998.250; 1.28859
1623.05;  441.500;   13.750; 7822.250; 1.26138
1626.85;  452.500;   26.750; 7668.250; 1.25402
1630.64;  450.500;   42.750; 7511.250; 1.26284
1634.44;  433.500;   26.750; 7307.250; 1.25283
1638.23;  425.500;   18.750; 7114.250; 1.24166
1642.01;  417.500;   39.750; 6938.250; 1.26155
1645.80;  427.500;   42.750; 6743.250; 1.24093
1649.58;  410.500;   38.750; 6531.250; 1.24216
1653.35;  419.500;   44.750; 6309.250; 1.22314
1657.13;  373.500;   36.750; 6064.250; 1.25283
1660.90;  365.500;   34.750; 5808.250; 1.24194
1664.67;  344.500;   28.750; 5491.250; 1.23805
1668.43;  346.500;   24.750; 5119.250; 1.19958
1672.19;  312.500;   35.750; 4656.250; 1.22260
1675.95;  275.500;   31.750; 4113.250; 1.22388
1679.70;  241.500;   46.750; 3563.250; 1.25663
1683.46;  211.500;   23.750; 3047.250; 1.20693
1687.20;  194.500;   39.750; 2617.250; 1.22157
1690.95;  183.500;   36.750; 2243.250; 1.17713
1694.69;  168.500;   56.750; 1964.250; 1.23222
1698.43;  149.500;   22.750; 1699.250; 1.12146
1702.16;  146.500;   44.750; 1533.250; 1.16521
1705.89;  130.500;   30.750; 1372.250; 1.12868
1709.62;  128.500;   25.750; 1277.250; 1.08565
1713.35;  127.500;   17.750; 1187.250; 1.02760
1717.07;  129.500;   42.750; 1123.250; 1.09536
1720.79;  132.500;   41.750; 1064.250; 1.05182
1724.50;  134.500;   44.750; 1019.250; 1.03575
1728.21;  119.500;   29.750;  974.250; 1.02217
1731.92;  130.500;   25.750;  931.250; 0.93673
1735.63;  123.500;   34.750;  925.250; 1.00147
1739.33;  139.500;   23.750;  909.250; 0.88367
1743.02;  114.500;   21.750;  865.250; 0.95877
1746.72;  122.500;   33.750;  872.250; 0.97533
1750.41;  138.500;   37.750;  865.250; 0.91452
1754.10;  124.500;   44.750;  846.250; 1.00217

