
Integration time [ms]:   3.780
Averaging Nr. [scans]: 1
Smoothing Nr. [pixels]: 0
Data measured with spectrometer [name]: 1911294U1
Wave   ;Sample   ;Dark     ;Reference;Absorbance
[nm]   ;[counts] ;[counts] ;[counts] ;[A.U]

 860.61;  183.500;   67.750;  833.250; 0.82042
 864.82;  183.500;   49.750;  998.250; 0.85074
 869.02;  216.500;   59.750; 1169.250; 0.84992
 873.23;  228.500;   54.750; 1288.250; 0.85121
 877.43;  241.500;   53.750; 1415.250; 0.86044
 881.63;  272.500;   54.750; 1540.250; 0.83391
 885.83;  276.500;   49.750; 1684.250; 0.85784
 890.03;  281.500;   28.750; 1796.250; 0.84467
 894.23;  307.500;   40.750; 1929.250; 0.85001
 898.42;  323.500;   37.750; 2071.250; 0.85226
 902.62;  339.500;   56.750; 2213.250; 0.88235
 906.81;  359.500;   35.750; 2337.250; 0.85180
 911.00;  371.500;   53.750; 2523.250; 0.89052
 915.19;  406.500;   45.750; 2712.250; 0.86874
 919.38;  452.500;   47.750; 2963.250; 0.85753
 923.57;  502.500;   53.750; 3292.250; 0.85834
 927.76;  554.500;   40.750; 3728.250; 0.85598
 931.94;  608.500;   39.750; 4163.250; 0.86034
 936.13;  656.500;   53.750; 4579.250; 0.87553
 940.31;  699.500;   50.750; 4873.250; 0.87119
 944.49;  746.500;   63.750; 5167.250; 0.87361
 948.67;  776.500;   49.750; 5411.250; 0.86790
 952.85;  785.500;   50.750; 5679.250; 0.88425
 957.03;  829.500;   47.750; 5965.250; 0.87907
 961.21;  884.500;   58.750; 6236.250; 0.87396
 965.38;  886.500;   44.750; 6471.250; 0.88279
 969.55;  911.500;   37.750; 6719.250; 0.88349
 973.73;  961.500;   56.750; 6971.250; 0.88323
 977.90;  965.500;   42.750; 7222.250; 0.89101
 982.06; 1017.500;   44.750; 7469.250; 0.88267
 986.23; 1050.500;   51.750; 7739.250; 0.88633
 990.40; 1106.500;   61.750; 7985.250; 0.87990
 994.56; 1119.500;   65.750; 8243.250; 0.88988
 998.72; 1153.500;   58.750; 8450.250; 0.88452
1002.88; 1181.500;   57.750; 8670.250; 0.88446
1007.04; 1204.500;   52.750; 8879.250; 0.88443
1011.20; 1222.500;   49.750; 9068.250; 0.88593
1015.36; 1260.500;   45.750; 9257.250; 0.87984
1019.51; 1289.500;   60.750; 9402.250; 0.88095
1023.67; 1317.500;   69.750; 9574.250; 0.88180
1027.82; 1327.500;   61.750; 9729.250; 0.88297
1031.97; 1352.500;   55.750; 9851.250; 0.87817
1036.12; 1375.500;   49.750;10022.250; 0.87634
1040.27; 1385.500;   61.750;10174.250; 0.88305
1044.41; 1415.500;   73.750;10320.250; 0.88290
1048.56; 1442.500;   53.750;10468.250; 0.87501
1052.70; 1453.500;   58.750;10629.250; 0.87960
1056.84; 1482.500;   47.750;10798.250; 0.87465
1060.98; 1503.500;   67.750;10996.250; 0.88148
1065.11; 1536.500;   63.750;11181.250; 0.87788
1069.25; 1566.500;   63.750;11391.250; 0.87725
1073.38; 1595.500;   56.750;11632.250; 0.87637
1077.52; 1638.500;   70.750;11862.250; 0.87629
1081.65; 1662.500;   62.750;12105.250; 0.87666
1085.77; 1671.500;   60.750;12352.250; 0.88258
1089.90; 1714.500;   56.750;12603.250; 0.87900
1094.03; 1750.500;   65.750;12857.250; 0.88039
1098.15; 1790.500;   68.750;13146.250; 0.88055
1102.27; 1818.500;   66.750;13436.250; 0.88264
1106.39; 1880.500;   69.750;13733.250; 0.87770
1110.51; 1904.500;   69.750;14055.250; 0.88210
1114.63; 1950.500;   49.750;14464.250; 0.87987
1118.74; 2006.500;   73.750;14874.250; 0.88410
1122.85; 2028.500;   70.750;15167.250; 0.88712
1126.96; 2055.500;   61.750;15350.250; 0.88469
1131.07; 2059.500;   57.750;15457.250; 0.88610
1135.18; 2054.500;   63.750;15545.250; 0.89080
1139.29; 2032.500;   45.750;15604.250; 0.89382
1143.39; 2009.500;   62.750;15613.250; 0.90243
1147.49; 1968.500;   71.750;15592.250; 0.91290
1151.59; 1968.500;   71.750;15618.250; 0.91362
1155.69; 1936.500;   64.750;15618.250; 0.91958
1159.78; 1925.500;   61.750;15619.250; 0.92155
1163.88; 1909.500;   66.750;15654.250; 0.92731
1167.97; 1899.500;   60.750;15657.250; 0.92850
1172.06; 1893.500;   60.750;15668.250; 0.93023
1176.15; 1893.500;   53.750;15670.250; 0.92882
1180.23; 1897.500;   59.750;15679.250; 0.92938
1184.32; 1869.500;   50.750;15690.250; 0.93445
1188.40; 1892.500;   57.750;15712.250; 0.93106
1192.48; 1893.500;   55.750;15725.250; 0.93077
1196.56; 1895.500;   53.750;15754.250; 0.93068
1200.64; 1903.500;   72.750;15783.250; 0.93356
1204.71; 1901.500;   50.750;15806.250; 0.93008
1208.78; 1931.500;   69.750;15849.250; 0.92817
1212.85; 1921.500;   54.750;15854.250; 0.92756
1216.92; 1912.500;   37.750;15840.250; 0.92578
1220.99; 1932.500;   49.750;15897.250; 0.92517
1225.05; 1955.500;   60.750;15920.250; 0.92274
1229.11; 1962.500;   53.750;15924.250; 0.91984
1233.17; 1967.500;   58.750;15926.250; 0.91976
1237.23; 1979.500;   49.750;15943.250; 0.91572
1241.29; 1989.500;   51.750;15960.250; 0.91433
1245.34; 1992.500;   79.750;16029.250; 0.92109
1249.39; 1996.500;   55.750;16081.250; 0.91684
1253.44; 2004.500;   36.750;16122.250; 0.91246
1257.49; 2018.500;   73.750;16225.250; 0.91935
1261.53; 2025.500;   40.750;16273.250; 0.91268
1265.58; 2041.500;   46.750;16338.250; 0.91207
1269.62; 2051.500;   46.750;16412.250; 0.91187
1273.65; 2049.500;   55.750;16472.250; 0.91561
1277.69; 2064.500;   53.750;16552.250; 0.91409
1281.72; 2061.500;   65.750;16612.250; 0.91860
1285.76; 2059.500;   66.750;16662.250; 0.92054
1289.79; 2054.500;   56.750;16697.250; 0.92063
1293.81; 2065.500;   44.750;16713.250; 0.91638
1297.84; 2045.500;   49.750;16765.250; 0.92301
1301.86; 2059.500;   43.750;16807.250; 0.91993
1305.88; 2040.500;   58.750;16824.250; 0.92737
1309.90; 2026.500;   49.750;16842.250; 0.92916
1313.92; 2015.500;   55.750;16828.250; 0.93240
1317.93; 1999.500;   65.750;16838.250; 0.93820
1321.94; 1962.500;   46.750;16825.250; 0.94241
1325.95; 1937.500;   64.750;16797.250; 0.95108
1329.96; 1914.500;   63.750;16802.250; 0.95637
1333.96; 1882.500;   52.750;16773.250; 0.96086
1337.96; 1850.500;   63.750;16776.250; 0.97098
1341.96; 1808.500;   46.750;16748.250; 0.97681
1345.96; 1779.500;   59.750;16622.250; 0.98366
1349.95; 1716.500;   42.750;16410.250; 0.99029
1353.95; 1672.500;   67.750;16154.250; 1.00105
1357.94; 1616.500;   50.750;15843.250; 1.00373
1361.92; 1561.500;   50.750;15571.250; 1.01171
1365.91; 1488.500;   46.750;15308.250; 1.02471
1369.89; 1439.500;   50.750;15042.250; 1.03322
1373.87; 1343.500;   48.750;14460.250; 1.04652
1377.85; 1195.500;   60.750;13607.250; 1.07693
1381.82; 1069.500;   48.750;12795.250; 1.09647
1385.80;  939.500;   50.750;12441.250; 1.14431
1389.77;  844.500;   54.750;12376.250; 1.19317
1393.74;  728.500;   63.750;12523.250; 1.27284
1397.70;  638.500;   57.750;12861.250; 1.34334
1401.66;  557.500;   57.750;13177.250; 1.41916
1405.62;  482.500;   34.750;13448.250; 1.47651
1409.58;  433.500;   50.750;13653.250; 1.55070
1413.54;  375.500;   50.750;13787.250; 1.62633
1417.49;  332.500;   27.750;13838.250; 1.65627
1421.44;  333.500;   63.750;13894.250; 1.70988
1425.39;  298.500;   54.750;13879.250; 1.75370
1429.33;  303.500;   64.750;13864.250; 1.76192
1433.27;  284.500;   54.750;13809.250; 1.77719
1437.21;  267.500;   48.750;13776.250; 1.79764
1441.15;  265.500;   52.750;13748.250; 1.80871
1445.09;  274.500;   60.750;13691.250; 1.80461
1449.02;  252.500;   57.750;13611.250; 1.84257
1452.95;  265.500;   52.750;13536.250; 1.80193
1456.87;  262.500;   53.750;13439.250; 1.80701
1460.80;  251.500;   43.750;13345.250; 1.80636
1464.72;  262.500;   59.750;13253.250; 1.81340
1468.64;  259.500;   43.750;13131.250; 1.78291
1472.55;  289.500;   63.750;13051.250; 1.75990
1476.47;  270.500;   43.750;12969.250; 1.75590
1480.38;  296.500;   38.750;12870.250; 1.69708
1484.28;  312.500;   54.750;12750.250; 1.69245
1488.19;  320.500;   50.750;12663.250; 1.66984
1492.09;  315.500;   28.750;12533.250; 1.63956
1495.99;  354.500;   58.750;12434.250; 1.62164
1499.89;  363.500;   46.750;12320.250; 1.58825
1503.78;  387.500;   48.750;12228.250; 1.55575
1507.67;  413.500;   52.750;12113.250; 1.52416
1511.56;  416.500;   33.750;11982.250; 1.49440
1515.44;  454.500;   50.750;11884.250; 1.46700
1519.33;  472.500;   48.750;11757.250; 1.44139
1523.21;  488.500;   35.750;11649.250; 1.40910
1527.08;  499.500;   57.750;11506.250; 1.41357
1530.96;  515.500;   39.750;11368.250; 1.37679
1534.83;  554.500;   52.750;11249.250; 1.34859
1538.70;  541.500;   57.750;11082.250; 1.35774
1542.56;  545.500;   28.750;10958.250; 1.32532
1546.42;  578.500;   39.750;10836.250; 1.30190
1550.28;  598.500;   58.750;10683.250; 1.29412
1554.14;  592.500;   39.750;10510.250; 1.27744
1557.99;  603.500;   41.750;10388.250; 1.26525
1561.84;  613.500;   33.750;10234.250; 1.24538
1565.69;  630.500;   40.750;10095.250; 1.23169
1569.54;  640.500;   24.750; 9939.250; 1.20687
1573.38;  639.500;   40.750; 9804.250; 1.21236
1577.22;  642.500;   31.750; 9649.250; 1.19720
1581.05;  647.500;   49.750; 9522.250; 1.19995
1584.89;  658.500;   45.750; 9369.250; 1.18230
1588.72;  649.500;   41.750; 9215.250; 1.17881
1592.54;  658.500;   35.750; 9061.250; 1.16116
1596.37;  642.500;   22.750; 8908.250; 1.15647
1600.19;  656.500;   43.750; 8774.250; 1.15376
1604.01;  652.500;   33.750; 8610.250; 1.14179
1607.82;  649.500;   31.750; 8473.250; 1.13561
1611.63;  632.500;   22.750; 8316.250; 1.13359
1615.44;  666.500;   26.750; 8167.250; 1.10464
1619.25;  643.500;   34.750; 7998.250; 1.11667
1623.05;  643.500;   13.750; 7822.250; 1.09340
1626.85;  651.500;   26.750; 7668.250; 1.08747
1630.64;  633.500;   42.750; 7511.250; 1.10183
1634.44;  622.500;   26.750; 7307.250; 1.08710
1638.23;  600.500;   18.750; 7114.250; 1.08625
1642.01;  600.500;   39.750; 6938.250; 1.08999
1645.80;  590.500;   42.750; 6743.250; 1.08752
1649.58;  571.500;   38.750; 6531.250; 1.08589
1653.35;  566.500;   44.750; 6309.250; 1.07942
1657.13;  539.500;   36.750; 6064.250; 1.07879
1660.90;  517.500;   34.750; 5808.250; 1.07772
1664.67;  490.500;   28.750; 5491.250; 1.07298
1668.43;  496.500;   24.750; 5119.250; 1.03339
1672.19;  438.500;   35.750; 4656.250; 1.05965
1675.95;  376.500;   31.750; 4113.250; 1.07332
1679.70;  329.500;   46.750; 3563.250; 1.09471
1683.46;  296.500;   23.750; 3047.250; 1.04475
1687.20;  271.500;   39.750; 2617.250; 1.04618
1690.95;  238.500;   36.750; 2243.250; 1.03889
1694.69;  221.500;   56.750; 1964.250; 1.06364
1698.43;  203.500;   22.750; 1699.250; 0.96733
1702.16;  199.500;   44.750; 1533.250; 0.98312
1705.89;  166.500;   30.750; 1372.250; 0.99485
1709.62;  160.500;   25.750; 1277.250; 0.96790
1713.35;  167.500;   17.750; 1187.250; 0.89263
1717.07;  160.500;   42.750; 1123.250; 0.96266
1720.79;  146.500;   41.750; 1064.250; 0.98951
1724.50;  172.500;   44.750; 1019.250; 0.88242
1728.21;  153.500;   29.750;  974.250; 0.88266
1731.92;  150.500;   25.750;  931.250; 0.86085
1735.63;  151.500;   34.750;  925.250; 0.88238
1739.33;  148.500;   23.750;  909.250; 0.85115
1743.02;  155.500;   21.750;  865.250; 0.79979
1746.72;  149.500;   33.750;  872.250; 0.85998
1750.41;  166.500;   37.750;  865.250; 0.80802
1754.10;  146.500;   44.750;  846.250; 0.89637

