
Integration time [ms]:   3.780
Averaging Nr. [scans]: 1
Smoothing Nr. [pixels]: 0
Data measured with spectrometer [name]: 1911294U1
Wave   ;Sample   ;Dark     ;Reference;Absorbance
[nm]   ;[counts] ;[counts] ;[counts] ;[A.U]

 860.61;  157.250;   67.750;  833.250; 0.93212
 864.82;  191.250;   49.750;  998.250; 0.82628
 869.02;  207.250;   59.750; 1169.250; 0.87634
 873.23;  226.250;   54.750; 1288.250; 0.85688
 877.43;  241.250;   53.750; 1415.250; 0.86102
 881.63;  256.250;   54.750; 1540.250; 0.86760
 885.83;  281.250;   49.750; 1684.250; 0.84883
 890.03;  285.250;   28.750; 1796.250; 0.83827
 894.23;  292.250;   40.750; 1929.250; 0.87558
 898.42;  322.250;   37.750; 2071.250; 0.85416
 902.62;  353.250;   56.750; 2213.250; 0.86172
 906.81;  362.250;   35.750; 2337.250; 0.84813
 911.00;  394.250;   53.750; 2523.250; 0.86049
 915.19;  405.250;   45.750; 2712.250; 0.87024
 919.38;  460.250;   47.750; 2963.250; 0.84929
 923.57;  498.250;   53.750; 3292.250; 0.86247
 927.76;  538.250;   40.750; 3728.250; 0.86994
 931.94;  622.250;   39.750; 4163.250; 0.84997
 936.13;  662.250;   53.750; 4579.250; 0.87141
 940.31;  713.250;   50.750; 4873.250; 0.86209
 944.49;  764.250;   63.750; 5167.250; 0.86246
 948.67;  786.250;   49.750; 5411.250; 0.86211
 952.85;  816.250;   50.750; 5679.250; 0.86645
 957.03;  848.250;   47.750; 5965.250; 0.86878
 961.21;  874.250;   58.750; 6236.250; 0.87939
 965.38;  905.250;   44.750; 6471.250; 0.87322
 969.55;  928.250;   37.750; 6719.250; 0.87524
 973.73;  977.250;   56.750; 6971.250; 0.87574
 977.90;  989.250;   42.750; 7222.250; 0.87997
 982.06; 1050.250;   44.750; 7469.250; 0.86829
 986.23; 1066.250;   51.750; 7739.250; 0.87953
 990.40; 1113.250;   61.750; 7985.250; 0.87711
 994.56; 1154.250;   65.750; 8243.250; 0.87579
 998.72; 1176.250;   58.750; 8450.250; 0.87559
1002.88; 1198.250;   57.750; 8670.250; 0.87803
1007.04; 1230.250;   52.750; 8879.250; 0.87483
1011.20; 1256.250;   49.750; 9068.250; 0.87361
1015.36; 1278.250;   45.750; 9257.250; 0.87354
1019.51; 1305.250;   60.750; 9402.250; 0.87542
1023.67; 1324.250;   69.750; 9574.250; 0.87946
1027.82; 1334.250;   61.750; 9729.250; 0.88066
1031.97; 1365.250;   55.750; 9851.250; 0.87392
1036.12; 1380.250;   49.750;10022.250; 0.87479
1040.27; 1394.250;   61.750;10174.250; 0.88019
1044.41; 1435.250;   73.750;10320.250; 0.87656
1048.56; 1466.250;   53.750;10468.250; 0.86765
1052.70; 1474.250;   58.750;10629.250; 0.87319
1056.84; 1495.250;   47.750;10798.250; 0.87081
1060.98; 1510.250;   67.750;10996.250; 0.87944
1065.11; 1541.250;   63.750;11181.250; 0.87648
1069.25; 1566.250;   63.750;11391.250; 0.87732
1073.38; 1592.250;   56.750;11632.250; 0.87729
1077.52; 1645.250;   70.750;11862.250; 0.87443
1081.65; 1666.250;   62.750;12105.250; 0.87565
1085.77; 1678.250;   60.750;12352.250; 0.88076
1089.90; 1724.250;   56.750;12603.250; 0.87646
1094.03; 1761.250;   65.750;12857.250; 0.87762
1098.15; 1798.250;   68.750;13146.250; 0.87860
1102.27; 1806.250;   66.750;13436.250; 0.88569
1106.39; 1866.250;   69.750;13733.250; 0.88113
1110.51; 1893.250;   69.750;14055.250; 0.88477
1114.63; 1926.250;   49.750;14464.250; 0.88545
1118.74; 1998.250;   73.750;14874.250; 0.88596
1122.85; 2022.250;   70.750;15167.250; 0.88851
1126.96; 2014.250;   61.750;15350.250; 0.89377
1131.07; 2038.250;   57.750;15457.250; 0.89073
1135.18; 2024.250;   63.750;15545.250; 0.89745
1139.29; 1996.250;   45.750;15604.250; 0.90182
1143.39; 1978.250;   62.750;15613.250; 0.90946
1147.49; 1946.250;   71.750;15592.250; 0.91802
1151.59; 1906.250;   71.750;15618.250; 0.92811
1155.69; 1905.250;   64.750;15618.250; 0.92689
1159.78; 1887.250;   61.750;15619.250; 0.93056
1163.88; 1876.250;   66.750;15654.250; 0.93522
1167.97; 1858.250;   60.750;15657.250; 0.93836
1172.06; 1858.250;   60.750;15668.250; 0.93866
1176.15; 1844.250;   53.750;15670.250; 0.94061
1180.23; 1855.250;   59.750;15679.250; 0.93948
1184.32; 1825.250;   50.750;15690.250; 0.94515
1188.40; 1842.250;   57.750;15712.250; 0.94312
1192.48; 1828.250;   55.750;15725.250; 0.94647
1196.56; 1833.250;   53.750;15754.250; 0.94562
1200.64; 1837.250;   72.750;15783.250; 0.94957
1204.71; 1834.250;   50.750;15806.250; 0.94616
1208.78; 1862.250;   69.750;15849.250; 0.94463
1212.85; 1849.250;   54.750;15854.250; 0.94470
1216.92; 1850.250;   37.750;15840.250; 0.94045
1220.99; 1858.250;   49.750;15897.250; 0.94264
1225.05; 1876.250;   60.750;15920.250; 0.94129
1229.11; 1876.250;   53.750;15924.250; 0.93992
1233.17; 1870.250;   58.750;15926.250; 0.94247
1237.23; 1880.250;   49.750;15943.250; 0.93865
1241.29; 1888.250;   51.750;15960.250; 0.93764
1245.34; 1893.250;   79.750;16029.250; 0.94423
1249.39; 1907.250;   55.750;16081.250; 0.93729
1253.44; 1908.250;   36.750;16122.250; 0.93424
1257.49; 1921.250;   73.750;16225.250; 0.94163
1261.53; 1915.250;   40.750;16273.250; 0.93750
1265.58; 1946.250;   46.750;16338.250; 0.93332
1269.62; 1931.250;   46.750;16412.250; 0.93873
1273.65; 1941.250;   55.750;16472.250; 0.93985
1277.69; 1948.250;   53.750;16552.250; 0.93995
1281.72; 1957.250;   65.750;16612.250; 0.94190
1285.76; 1950.250;   66.750;16662.250; 0.94502
1289.79; 1945.250;   56.750;16697.250; 0.94505
1293.81; 1952.250;   44.750;16713.250; 0.94143
1297.84; 1937.250;   49.750;16765.250; 0.94723
1301.86; 1938.250;   43.750;16807.250; 0.94687
1305.88; 1926.250;   58.750;16824.250; 0.95316
1309.90; 1914.250;   49.750;16842.250; 0.95455
1313.92; 1903.250;   55.750;16828.250; 0.95801
1317.93; 1876.250;   65.750;16838.250; 0.96680
1321.94; 1858.250;   46.750;16825.250; 0.96671
1325.95; 1826.250;   64.750;16797.250; 0.97768
1329.96; 1814.250;   63.750;16802.250; 0.98055
1333.96; 1769.250;   52.750;16773.250; 0.98861
1337.96; 1725.250;   63.750;16776.250; 1.00254
1341.96; 1706.250;   46.750;16748.250; 1.00278
1345.96; 1666.250;   59.750;16622.250; 1.01325
1349.95; 1614.250;   42.750;16410.250; 1.01767
1353.95; 1584.250;   67.750;16154.250; 1.02562
1357.94; 1524.250;   50.750;15843.250; 1.03010
1361.92; 1480.250;   50.750;15571.250; 1.03572
1365.91; 1424.250;   46.750;15308.250; 1.04451
1369.89; 1364.250;   50.750;15042.250; 1.05742
1373.87; 1273.250;   48.750;14460.250; 1.07075
1377.85; 1151.250;   60.750;13607.250; 1.09420
1381.82; 1023.250;   48.750;12795.250; 1.11661
1385.80;  917.250;   50.750;12441.250; 1.15532
1389.77;  809.250;   54.750;12376.250; 1.21300
1393.74;  720.250;   63.750;12523.250; 1.27827
1397.70;  645.250;   57.750;12861.250; 1.33832
1401.66;  551.250;   57.750;13177.250; 1.42463
1405.62;  488.250;   34.750;13448.250; 1.47096
1409.58;  434.250;   50.750;13653.250; 1.54985
1413.54;  387.250;   50.750;13787.250; 1.61089
1417.49;  332.250;   27.750;13838.250; 1.65662
1421.44;  333.250;   63.750;13894.250; 1.71028
1425.39;  317.250;   54.750;13879.250; 1.72152
1429.33;  298.250;   64.750;13864.250; 1.77158
1433.27;  297.250;   54.750;13809.250; 1.75373
1437.21;  281.250;   48.750;13776.250; 1.77117
1441.15;  288.250;   52.750;13748.250; 1.76459
1445.09;  264.250;   60.750;13691.250; 1.82595
1449.02;  276.250;   57.750;13611.250; 1.79260
1452.95;  270.250;   52.750;13536.250; 1.79234
1456.87;  262.250;   53.750;13439.250; 1.80753
1460.80;  255.250;   43.750;13345.250; 1.79859
1464.72;  273.250;   59.750;13253.250; 1.79096
1468.64;  269.250;   43.750;13131.250; 1.76371
1472.55;  298.250;   63.750;13051.250; 1.74338
1476.47;  296.250;   43.750;12969.250; 1.70919
1480.38;  305.250;   38.750;12870.250; 1.68258
1484.28;  314.250;   54.750;12750.250; 1.68951
1488.19;  332.250;   50.750;12663.250; 1.65132
1492.09;  322.250;   28.750;12533.250; 1.62946
1495.99;  353.250;   58.750;12434.250; 1.62348
1499.89;  378.250;   46.750;12320.250; 1.56848
1503.78;  378.250;   48.750;12228.250; 1.56777
1507.67;  409.250;   52.750;12113.250; 1.52931
1511.56;  416.250;   33.750;11982.250; 1.49468
1515.44;  432.250;   50.750;11884.250; 1.49162
1519.33;  466.250;   48.750;11757.250; 1.44784
1523.21;  454.250;   35.750;11649.250; 1.44327
1527.08;  476.250;   57.750;11506.250; 1.43705
1530.96;  491.250;   39.750;11368.250; 1.39951
1534.83;  527.250;   52.750;11249.250; 1.37285
1538.70;  520.250;   57.750;11082.250; 1.37725
1542.56;  524.250;   28.750;10958.250; 1.34356
1546.42;  549.250;   39.750;10836.250; 1.32614
1550.28;  549.250;   58.750;10683.250; 1.33567
1554.14;  557.250;   39.750;10510.250; 1.30606
1557.99;  567.250;   41.750;10388.250; 1.29422
1561.84;  563.250;   33.750;10234.250; 1.28476
1565.69;  566.250;   40.750;10095.250; 1.28179
1569.54;  570.250;   24.750; 9939.250; 1.25948
1573.38;  578.250;   40.750; 9804.250; 1.25923
1577.22;  581.250;   31.750; 9649.250; 1.24309
1581.05;  593.250;   49.750; 9522.250; 1.24127
1584.89;  592.250;   45.750; 9369.250; 1.23199
1588.72;  590.250;   41.750; 9215.250; 1.22336
1592.54;  590.250;   35.750; 9061.250; 1.21157
1596.37;  580.250;   22.750; 8908.250; 1.20244
1600.19;  604.250;   43.750; 8774.250; 1.19246
1604.01;  577.250;   33.750; 8610.250; 1.19811
1607.82;  576.250;   31.750; 8473.250; 1.19042
1611.63;  566.250;   22.750; 8316.250; 1.18354
1615.44;  587.250;   26.750; 8167.250; 1.16208
1619.25;  563.250;   34.750; 7998.250; 1.17806
1623.05;  546.250;   13.750; 7822.250; 1.16625
1626.85;  545.250;   26.750; 7668.250; 1.16843
1630.64;  548.250;   42.750; 7511.250; 1.16951
1634.44;  543.250;   26.750; 7307.250; 1.14909
1638.23;  519.250;   18.750; 7114.250; 1.15158
1642.01;  524.250;   39.750; 6938.250; 1.15346
1645.80;  512.250;   42.750; 6743.250; 1.15447
1649.58;  489.250;   38.750; 6531.250; 1.15872
1653.35;  499.250;   44.750; 6309.250; 1.13935
1657.13;  455.250;   36.750; 6064.250; 1.15844
1660.90;  445.250;   34.750; 5808.250; 1.14813
1664.67;  417.250;   28.750; 5491.250; 1.14800
1668.43;  428.250;   24.750; 5119.250; 1.10126
1672.19;  373.250;   35.750; 4656.250; 1.13642
1675.95;  333.250;   31.750; 4113.250; 1.13153
1679.70;  302.250;   46.750; 3563.250; 1.13872
1683.46;  268.250;   23.750; 3047.250; 1.09223
1687.20;  245.250;   39.750; 2617.250; 1.09839
1690.95;  218.250;   36.750; 2243.250; 1.08483
1694.69;  208.250;   56.750; 1964.250; 1.10005
1698.43;  176.250;   22.750; 1699.250; 1.03830
1702.16;  169.250;   44.750; 1533.250; 1.07758
1705.89;  150.250;   30.750; 1372.250; 1.05022
1709.62;  160.250;   25.750; 1277.250; 0.96871
1713.35;  153.250;   17.750; 1187.250; 0.93606
1717.07;  143.250;   42.750; 1123.250; 1.03146
1720.79;  152.250;   41.750; 1064.250; 0.96630
1724.50;  146.250;   44.750; 1019.250; 0.98232
1728.21;  141.250;   29.750;  974.250; 0.92793
1731.92;  148.250;   25.750;  931.250; 0.86875
1735.63;  145.250;   34.750;  925.250; 0.90627
1739.33;  137.250;   23.750;  909.250; 0.89219
1743.02;  138.250;   21.750;  865.250; 0.85976
1746.72;  148.250;   33.750;  872.250; 0.86470
1750.41;  145.250;   37.750;  865.250; 0.88636
1754.10;  130.250;   44.750;  846.250; 0.97194

