
Integration time [ms]:   3.780
Averaging Nr. [scans]: 1
Smoothing Nr. [pixels]: 0
Data measured with spectrometer [name]: 1911294U1
Wave   ;Sample   ;Dark     ;Reference;Absorbance
[nm]   ;[counts] ;[counts] ;[counts] ;[A.U]

 860.61;  151.750;   67.750;  833.250; 0.95967
 864.82;  176.750;   49.750;  998.250; 0.87323
 869.02;  217.750;   59.750; 1169.250; 0.84647
 873.23;  224.750;   54.750; 1288.250; 0.86069
 877.43;  226.750;   53.750; 1415.250; 0.89597
 881.63;  267.750;   54.750; 1540.250; 0.84349
 885.83;  266.750;   49.750; 1684.250; 0.87693
 890.03;  274.750;   28.750; 1796.250; 0.85642
 894.23;  290.750;   40.750; 1929.250; 0.87818
 898.42;  317.750;   37.750; 2071.250; 0.86109
 902.62;  333.750;   56.750; 2213.250; 0.89127
 906.81;  351.750;   35.750; 2337.250; 0.86232
 911.00;  369.750;   53.750; 2523.250; 0.89292
 915.19;  387.750;   45.750; 2712.250; 0.89192
 919.38;  444.750;   47.750; 2963.250; 0.86592
 923.57;  482.750;   53.750; 3292.250; 0.87789
 927.76;  541.750;   40.750; 3728.250; 0.86689
 931.94;  582.750;   39.750; 4163.250; 0.88047
 936.13;  649.750;   53.750; 4579.250; 0.88042
 940.31;  688.750;   50.750; 4873.250; 0.87845
 944.49;  729.750;   63.750; 5167.250; 0.88439
 948.67;  746.750;   49.750; 5411.250; 0.88605
 952.85;  779.750;   50.750; 5679.250; 0.88767
 957.03;  810.750;   47.750; 5965.250; 0.88961
 961.21;  850.750;   58.750; 6236.250; 0.89209
 965.38;  876.750;   44.750; 6471.250; 0.88785
 969.55;  897.750;   37.750; 6719.250; 0.89038
 973.73;  937.750;   56.750; 6971.250; 0.89478
 977.90;  961.750;   42.750; 7222.250; 0.89278
 982.06; 1003.750;   44.750; 7469.250; 0.88885
 986.23; 1022.750;   51.750; 7739.250; 0.89857
 990.40; 1072.750;   61.750; 7985.250; 0.89417
 994.56; 1116.750;   65.750; 8243.250; 0.89102
 998.72; 1114.750;   58.750; 8450.250; 0.90018
1002.88; 1159.750;   57.750; 8670.250; 0.89295
1007.04; 1201.750;   52.750; 8879.250; 0.88547
1011.20; 1208.750;   49.750; 9068.250; 0.89105
1015.36; 1244.750;   45.750; 9257.250; 0.88551
1019.51; 1257.750;   60.750; 9402.250; 0.89232
1023.67; 1285.750;   69.750; 9574.250; 0.89300
1027.82; 1304.750;   61.750; 9729.250; 0.89084
1031.97; 1326.750;   55.750; 9851.250; 0.88688
1036.12; 1344.750;   49.750;10022.250; 0.88653
1040.27; 1356.750;   61.750;10174.250; 0.89259
1044.41; 1400.750;   73.750;10320.250; 0.88770
1048.56; 1420.750;   53.750;10468.250; 0.88187
1052.70; 1435.750;   58.750;10629.250; 0.88516
1056.84; 1468.750;   47.750;10798.250; 0.87883
1060.98; 1480.750;   67.750;10996.250; 0.88842
1065.11; 1516.750;   63.750;11181.250; 0.88374
1069.25; 1534.750;   63.750;11391.250; 0.88652
1073.38; 1565.750;   56.750;11632.250; 0.88485
1077.52; 1600.750;   70.750;11862.250; 0.88688
1081.65; 1638.750;   62.750;12105.250; 0.88316
1085.77; 1652.750;   60.750;12352.250; 0.88766
1089.90; 1683.750;   56.750;12603.250; 0.88714
1094.03; 1724.750;   65.750;12857.250; 0.88708
1098.15; 1762.750;   68.750;13146.250; 0.88761
1102.27; 1765.750;   66.750;13436.250; 0.89592
1106.39; 1832.750;   69.750;13733.250; 0.88931
1110.51; 1879.750;   69.750;14055.250; 0.88800
1114.63; 1906.750;   49.750;14464.250; 0.88999
1118.74; 1963.750;   73.750;14874.250; 0.89381
1122.85; 1996.750;   70.750;15167.250; 0.89422
1126.96; 2006.750;   61.750;15350.250; 0.89545
1131.07; 2027.750;   57.750;15457.250; 0.89304
1135.18; 2009.750;   63.750;15545.250; 0.90067
1139.29; 1975.750;   45.750;15604.250; 0.90641
1143.39; 1960.750;   62.750;15613.250; 0.91345
1147.49; 1935.750;   71.750;15592.250; 0.92046
1151.59; 1911.750;   71.750;15618.250; 0.92681
1155.69; 1904.750;   64.750;15618.250; 0.92701
1159.78; 1877.750;   61.750;15619.250; 0.93282
1163.88; 1894.750;   66.750;15654.250; 0.93080
1167.97; 1859.750;   60.750;15657.250; 0.93800
1172.06; 1859.750;   60.750;15668.250; 0.93830
1176.15; 1858.750;   53.750;15670.250; 0.93711
1180.23; 1852.750;   59.750;15679.250; 0.94009
1184.32; 1841.750;   50.750;15690.250; 0.94113
1188.40; 1853.750;   57.750;15712.250; 0.94033
1192.48; 1849.750;   55.750;15725.250; 0.94123
1196.56; 1867.750;   53.750;15754.250; 0.93728
1200.64; 1878.750;   72.750;15783.250; 0.93947
1204.71; 1868.750;   50.750;15806.250; 0.93784
1208.78; 1880.750;   69.750;15849.250; 0.94017
1212.85; 1884.750;   54.750;15854.250; 0.93619
1216.92; 1867.750;   37.750;15840.250; 0.93627
1220.99; 1891.750;   49.750;15897.250; 0.93467
1225.05; 1914.750;   60.750;15920.250; 0.93218
1229.11; 1898.750;   53.750;15924.250; 0.93459
1233.17; 1924.750;   58.750;15926.250; 0.92960
1237.23; 1933.750;   49.750;15943.250; 0.92614
1241.29; 1931.750;   51.750;15960.250; 0.92747
1245.34; 1951.750;   79.750;16029.250; 0.93044
1249.39; 1941.750;   55.750;16081.250; 0.92927
1253.44; 1950.750;   36.750;16122.250; 0.92449
1257.49; 1972.750;   73.750;16225.250; 0.92969
1261.53; 1977.750;   40.750;16273.250; 0.92326
1265.58; 1987.750;   46.750;16338.250; 0.92394
1269.62; 2004.750;   46.750;16412.250; 0.92212
1273.65; 2001.750;   55.750;16472.250; 0.92614
1277.69; 2012.750;   53.750;16552.250; 0.92541
1281.72; 2026.750;   65.750;16612.250; 0.92623
1285.76; 2009.750;   66.750;16662.250; 0.93152
1289.79; 2008.750;   56.750;16697.250; 0.93069
1293.81; 2014.750;   44.750;16713.250; 0.92743
1297.84; 2000.750;   49.750;16765.250; 0.93286
1301.86; 2001.750;   43.750;16807.250; 0.93255
1305.88; 1984.750;   58.750;16824.250; 0.93976
1309.90; 1992.750;   49.750;16842.250; 0.93664
1313.92; 1965.750;   55.750;16828.250; 0.94356
1317.93; 1950.750;   65.750;16838.250; 0.94929
1321.94; 1924.750;   46.750;16825.250; 0.95106
1325.95; 1900.750;   64.750;16797.250; 0.95969
1329.96; 1874.750;   63.750;16802.250; 0.96580
1333.96; 1836.750;   52.750;16773.250; 0.97185
1337.96; 1815.750;   63.750;16776.250; 0.97951
1341.96; 1778.750;   46.750;16748.250; 0.98421
1345.96; 1728.750;   59.750;16622.250; 0.99667
1349.95; 1667.750;   42.750;16410.250; 1.00313
1353.95; 1634.750;   67.750;16154.250; 1.01139
1357.94; 1579.750;   50.750;15843.250; 1.01404
1361.92; 1515.750;   50.750;15571.250; 1.02507
1365.91; 1448.750;   46.750;15308.250; 1.03685
1369.89; 1401.750;   50.750;15042.250; 1.04519
1373.87; 1291.750;   48.750;14460.250; 1.06424
1377.85; 1171.750;   60.750;13607.250; 1.08611
1381.82; 1035.750;   48.750;12795.250; 1.11107
1385.80;  914.750;   50.750;12441.250; 1.15658
1389.77;  806.750;   54.750;12376.250; 1.21445
1393.74;  701.750;   63.750;12523.250; 1.29068
1397.70;  615.750;   57.750;12861.250; 1.36069
1401.66;  531.750;   57.750;13177.250; 1.44214
1405.62;  445.750;   34.750;13448.250; 1.51370
1409.58;  411.750;   50.750;13653.250; 1.57611
1413.54;  358.750;   50.750;13787.250; 1.64933
1417.49;  323.750;   27.750;13838.250; 1.66892
1421.44;  315.750;   63.750;13894.250; 1.73944
1425.39;  292.750;   54.750;13879.250; 1.76407
1429.33;  291.750;   64.750;13864.250; 1.78384
1433.27;  267.750;   54.750;13809.250; 1.81007
1437.21;  243.750;   48.750;13776.250; 1.84756
1441.15;  271.750;   52.750;13748.250; 1.79613
1445.09;  248.750;   60.750;13691.250; 1.86035
1449.02;  251.750;   57.750;13611.250; 1.84425
1452.95;  241.750;   52.750;13536.250; 1.85334
1456.87;  249.750;   53.750;13439.250; 1.83438
1460.80;  239.750;   43.750;13345.250; 1.83164
1464.72;  248.750;   59.750;13253.250; 1.84390
1468.64;  249.750;   43.750;13131.250; 1.80299
1472.55;  266.750;   63.750;13051.250; 1.80603
1476.47;  270.750;   43.750;12969.250; 1.75542
1480.38;  277.750;   38.750;12870.250; 1.72988
1484.28;  306.750;   54.750;12750.250; 1.70225
1488.19;  314.750;   50.750;12663.250; 1.67920
1492.09;  319.750;   28.750;12533.250; 1.63317
1495.99;  351.750;   58.750;12434.250; 1.62570
1499.89;  362.750;   46.750;12320.250; 1.58928
1503.78;  373.750;   48.750;12228.250; 1.57375
1507.67;  403.750;   52.750;12113.250; 1.53606
1511.56;  393.750;   33.750;11982.250; 1.52101
1515.44;  423.750;   50.750;11884.250; 1.50140
1519.33;  447.750;   48.750;11757.250; 1.46753
1523.21;  468.750;   35.750;11649.250; 1.42848
1527.08;  475.750;   57.750;11506.250; 1.43757
1530.96;  500.750;   39.750;11368.250; 1.39047
1534.83;  519.750;   52.750;11249.250; 1.37977
1538.70;  529.750;   57.750;11082.250; 1.36842
1542.56;  530.750;   28.750;10958.250; 1.33790
1546.42;  559.750;   39.750;10836.250; 1.31728
1550.28;  566.750;   58.750;10683.250; 1.32044
1554.14;  583.750;   39.750;10510.250; 1.28437
1557.99;  570.750;   41.750;10388.250; 1.29134
1561.84;  585.750;   33.750;10234.250; 1.26668
1565.69;  603.750;   40.750;10095.250; 1.25185
1569.54;  603.750;   24.750; 9939.250; 1.23359
1573.38;  615.750;   40.750; 9804.250; 1.22994
1577.22;  633.750;   31.750; 9649.250; 1.20347
1581.05;  626.750;   49.750; 9522.250; 1.21529
1584.89;  631.750;   45.750; 9369.250; 1.20168
1588.72;  645.750;   41.750; 9215.250; 1.18150
1592.54;  627.750;   35.750; 9061.250; 1.18315
1596.37;  636.750;   22.750; 8908.250; 1.16051
1600.19;  649.750;   43.750; 8774.250; 1.15857
1604.01;  639.750;   33.750; 8610.250; 1.15084
1607.82;  630.750;   31.750; 8473.250; 1.14899
1611.63;  631.750;   22.750; 8316.250; 1.13412
1615.44;  636.750;   26.750; 8167.250; 1.12532
1619.25;  608.750;   34.750; 7998.250; 1.14219
1623.05;  613.750;   13.750; 7822.250; 1.11442
1626.85;  617.750;   26.750; 7668.250; 1.11159
1630.64;  611.750;   42.750; 7511.250; 1.11812
1634.44;  624.750;   26.750; 7307.250; 1.08546
1638.23;  570.750;   18.750; 7114.250; 1.10904
1642.01;  566.750;   39.750; 6938.250; 1.11694
1645.80;  572.750;   42.750; 6743.250; 1.10183
1649.58;  551.750;   38.750; 6531.250; 1.10229
1653.35;  550.750;   44.750; 6309.250; 1.09274
1657.13;  513.750;   36.750; 6064.250; 1.10162
1660.90;  501.750;   34.750; 5808.250; 1.09212
1664.67;  478.750;   28.750; 5491.250; 1.08418
1668.43;  463.750;   24.750; 5119.250; 1.06464
1672.19;  423.750;   35.750; 4656.250; 1.07586
1675.95;  366.750;   31.750; 4113.250; 1.08577
1679.70;  320.750;   46.750; 3563.250; 1.10836
1683.46;  303.750;   23.750; 3047.250; 1.03335
1687.20;  259.750;   39.750; 2617.250; 1.06878
1690.95;  233.750;   36.750; 2243.250; 1.04924
1694.69;  209.750;   56.750; 1964.250; 1.09577
1698.43;  184.750;   22.750; 1699.250; 1.01489
1702.16;  181.750;   44.750; 1533.250; 1.03603
1705.89;  153.750;   30.750; 1372.250; 1.03769
1709.62;  150.750;   25.750; 1277.250; 1.00052
1713.35;  160.750;   17.750; 1187.250; 0.91266
1717.07;  142.750;   42.750; 1123.250; 1.03362
1720.79;  144.750;   41.750; 1064.250; 0.99683
1724.50;  146.750;   44.750; 1019.250; 0.98018
1728.21;  131.750;   29.750;  974.250; 0.96660
1731.92;  138.750;   25.750;  931.250; 0.90381
1735.63;  127.750;   34.750;  925.250; 0.98115
1739.33;  146.750;   23.750;  909.250; 0.85728
1743.02;  141.750;   21.750;  865.250; 0.84690
1746.72;  127.750;   33.750;  872.250; 0.95038
1750.41;  141.750;   37.750;  865.250; 0.90073
1754.10;  125.750;   44.750;  846.250; 0.99542

