
Integration time [ms]:   3.780
Averaging Nr. [scans]: 1
Smoothing Nr. [pixels]: 0
Data measured with spectrometer [name]: 1911294U1
Wave   ;Sample   ;Dark     ;Reference;Absorbance
[nm]   ;[counts] ;[counts] ;[counts] ;[A.U]

 860.61;  139.250;   67.750;  833.250; 1.02964
 864.82;  138.250;   49.750;  998.250; 1.03009
 869.02;  155.250;   59.750; 1169.250; 1.06512
 873.23;  168.250;   54.750; 1288.250; 1.03614
 877.43;  174.250;   53.750; 1415.250; 1.05303
 881.63;  200.250;   54.750; 1540.250; 1.00901
 885.83;  186.250;   49.750; 1684.250; 1.07825
 890.03;  196.250;   28.750; 1796.250; 1.02334
 894.23;  205.250;   40.750; 1929.250; 1.05995
 898.42;  218.250;   37.750; 2071.250; 1.05177
 902.62;  239.250;   56.750; 2213.250; 1.07249
 906.81;  240.250;   35.750; 2337.250; 1.05132
 911.00;  259.250;   53.750; 2523.250; 1.07980
 915.19;  271.250;   45.750; 2712.250; 1.07280
 919.38;  300.250;   47.750; 2963.250; 1.06245
 923.57;  328.250;   53.750; 3292.250; 1.07180
 927.76;  357.250;   40.750; 3728.250; 1.06636
 931.94;  382.250;   39.750; 4163.250; 1.08061
 936.13;  420.250;   53.750; 4579.250; 1.09159
 940.31;  435.250;   50.750; 4873.250; 1.09838
 944.49;  463.250;   63.750; 5167.250; 1.10635
 948.67;  473.250;   49.750; 5411.250; 1.10243
 952.85;  486.250;   50.750; 5679.250; 1.11140
 957.03;  521.250;   47.750; 5965.250; 1.09682
 961.21;  548.250;   58.750; 6236.250; 1.10106
 965.38;  534.250;   44.750; 6471.250; 1.11822
 969.55;  553.250;   37.750; 6719.250; 1.11265
 973.73;  586.250;   56.750; 6971.250; 1.11589
 977.90;  591.250;   42.750; 7222.250; 1.11692
 982.06;  607.250;   44.750; 7469.250; 1.12054
 986.23;  632.250;   51.750; 7739.250; 1.12198
 990.40;  665.250;   61.750; 7985.250; 1.11824
 994.56;  674.250;   65.750; 8243.250; 1.12836
 998.72;  696.250;   58.750; 8450.250; 1.11936
1002.88;  696.250;   57.750; 8670.250; 1.12997
1007.04;  713.250;   52.750; 8879.250; 1.12592
1011.20;  733.250;   49.750; 9068.250; 1.12040
1015.36;  738.250;   45.750; 9257.250; 1.12391
1019.51;  759.250;   60.750; 9402.250; 1.12625
1023.67;  771.250;   69.750; 9574.250; 1.13190
1027.82;  785.250;   61.750; 9729.250; 1.12588
1031.97;  799.250;   55.750; 9851.250; 1.11975
1036.12;  812.250;   49.750;10022.250; 1.11656
1040.27;  804.250;   61.750;10174.250; 1.13416
1044.41;  832.250;   73.750;10320.250; 1.13062
1048.56;  835.250;   53.750;10468.250; 1.12471
1052.70;  852.250;   58.750;10629.250; 1.12455
1056.84;  873.250;   47.750;10798.250; 1.11471
1060.98;  881.250;   67.750;10996.250; 1.12820
1065.11;  891.250;   63.750;11181.250; 1.12824
1069.25;  904.250;   63.750;11391.250; 1.12960
1073.38;  919.250;   56.750;11632.250; 1.12778
1077.52;  959.250;   70.750;11862.250; 1.12291
1081.65;  959.250;   62.750;12105.250; 1.12817
1085.77;  976.250;   60.750;12352.250; 1.12795
1089.90;  981.250;   56.750;12603.250; 1.13262
1094.03; 1016.250;   65.750;12857.250; 1.12897
1098.15; 1022.250;   68.750;13146.250; 1.13720
1102.27; 1040.250;   66.750;13436.250; 1.13778
1106.39; 1071.250;   69.750;13733.250; 1.13491
1110.51; 1091.250;   69.750;14055.250; 1.13644
1114.63; 1091.250;   49.750;14464.250; 1.14114
1118.74; 1130.250;   73.750;14874.250; 1.14641
1122.85; 1153.250;   70.750;15167.250; 1.14445
1126.96; 1150.250;   61.750;15350.250; 1.14754
1131.07; 1156.250;   57.750;15457.250; 1.14671
1135.18; 1142.250;   63.750;15545.250; 1.15699
1139.29; 1110.250;   45.750;15604.250; 1.16482
1143.39; 1113.250;   62.750;15613.250; 1.17035
1147.49; 1068.250;   71.750;15592.250; 1.19243
1151.59; 1047.250;   71.750;15618.250; 1.20241
1155.69; 1034.250;   64.750;15618.250; 1.20528
1159.78; 1024.250;   61.750;15619.250; 1.20854
1163.88; 1023.250;   66.750;15654.250; 1.21209
1167.97; 1013.250;   60.750;15657.250; 1.21416
1172.06;  998.250;   60.750;15668.250; 1.22136
1176.15;  994.250;   53.750;15670.250; 1.22022
1180.23;  995.250;   59.750;15679.250; 1.22262
1184.32;  970.250;   50.750;15690.250; 1.23067
1188.40;  987.250;   57.750;15712.250; 1.22639
1192.48;  984.250;   55.750;15725.250; 1.22727
1196.56;  982.250;   53.750;15754.250; 1.22813
1200.64;  992.250;   72.750;15783.250; 1.23264
1204.71;  978.250;   50.750;15806.250; 1.23012
1208.78;  988.250;   69.750;15849.250; 1.23501
1212.85;  991.250;   54.750;15854.250; 1.22714
1216.92;  976.250;   37.750;15840.250; 1.22629
1220.99;  999.250;   49.750;15897.250; 1.22247
1225.05; 1018.250;   60.750;15920.250; 1.21915
1229.11; 1001.250;   53.750;15924.250; 1.22401
1233.17; 1008.250;   58.750;15926.250; 1.22301
1237.23; 1011.250;   49.750;15943.250; 1.21827
1241.29; 1028.250;   51.750;15960.250; 1.21196
1245.34; 1022.250;   79.750;16029.250; 1.22847
1249.39; 1025.250;   55.750;16081.250; 1.21826
1253.44; 1029.250;   36.750;16122.250; 1.20970
1257.49; 1042.250;   73.750;16225.250; 1.22211
1261.53; 1043.250;   40.750;16273.250; 1.20930
1265.58; 1048.250;   46.750;16338.250; 1.21131
1269.62; 1051.250;   46.750;16412.250; 1.21198
1273.65; 1045.250;   55.750;16472.250; 1.21986
1277.69; 1056.250;   53.750;16552.250; 1.21636
1281.72; 1062.250;   65.750;16612.250; 1.22023
1285.76; 1053.250;   66.750;16662.250; 1.22589
1289.79; 1062.250;   56.750;16697.250; 1.21878
1293.81; 1047.250;   44.750;16713.250; 1.22081
1297.84; 1035.250;   49.750;16765.250; 1.22946
1301.86; 1042.250;   43.750;16807.250; 1.22502
1305.88; 1027.250;   58.750;16824.250; 1.23832
1309.90; 1022.250;   49.750;16842.250; 1.23723
1313.92; 1004.250;   55.750;16828.250; 1.24756
1317.93; 1004.250;   65.750;16838.250; 1.25216
1321.94;  970.250;   46.750;16825.250; 1.25932
1325.95;  944.250;   64.750;16797.250; 1.27932
1329.96;  944.250;   63.750;16802.250; 1.27899
1333.96;  915.250;   52.750;16773.250; 1.28749
1337.96;  883.250;   63.750;16776.250; 1.30949
1341.96;  848.250;   46.750;16748.250; 1.31885
1345.96;  841.250;   59.750;16622.250; 1.32620
1349.95;  811.250;   42.750;16410.250; 1.32834
1353.95;  796.250;   67.750;16154.250; 1.34403
1357.94;  760.250;   50.750;15843.250; 1.34750
1361.92;  731.250;   50.750;15571.250; 1.35808
1365.91;  697.250;   46.750;15308.250; 1.37035
1369.89;  664.250;   50.750;15042.250; 1.38803
1373.87;  625.250;   48.750;14460.250; 1.39791
1377.85;  547.250;   60.750;13607.250; 1.44474
1381.82;  472.250;   48.750;12795.250; 1.47854
1385.80;  443.250;   50.750;12441.250; 1.49925
1389.77;  385.250;   54.750;12376.250; 1.57149
1393.74;  341.250;   63.750;12523.250; 1.65224
1397.70;  292.250;   57.750;12861.250; 1.73719
1401.66;  247.250;   57.750;13177.250; 1.84031
1405.62;  226.250;   34.750;13448.250; 1.84537
1409.58;  209.250;   50.750;13653.250; 1.93359
1413.54;  169.250;   50.750;13787.250; 2.06416
1417.49;  133.250;   27.750;13838.250; 2.11696
1421.44;  168.250;   63.750;13894.250; 2.12172
1425.39;  154.250;   54.750;13879.250; 2.14283
1429.33;  157.250;   64.750;13864.250; 2.17372
1433.27;  147.250;   54.750;13809.250; 2.17230
1437.21;  137.250;   48.750;13776.250; 2.19065
1441.15;  141.250;   52.750;13748.250; 2.18963
1445.09;  144.250;   60.750;13691.250; 2.21283
1449.02;  137.250;   57.750;13611.250; 2.23168
1452.95;  136.250;   52.750;13536.250; 2.20812
1456.87;  129.250;   53.750;13439.250; 2.24869
1460.80;  135.250;   43.750;13345.250; 2.16248
1464.72;  131.250;   59.750;13253.250; 2.26605
1468.64;  125.250;   43.750;13131.250; 2.20570
1472.55;  139.250;   63.750;13051.250; 2.23558
1476.47;  123.250;   43.750;12969.250; 2.21108
1480.38;  140.250;   38.750;12870.250; 2.10181
1484.28;  166.250;   54.750;12750.250; 2.05637
1488.19;  139.250;   50.750;12663.250; 2.15386
1492.09;  142.250;   28.750;12533.250; 2.04207
1495.99;  156.250;   58.750;12434.250; 2.10356
1499.89;  151.250;   46.750;12320.250; 2.06985
1503.78;  178.250;   48.750;12228.250; 1.97336
1507.67;  180.250;   52.750;12113.250; 1.97586
1511.56;  170.250;   33.750;11982.250; 1.94218
1515.44;  173.250;   50.750;11884.250; 1.98498
1519.33;  198.250;   48.750;11757.250; 1.89386
1523.21;  194.250;   35.750;11649.250; 1.86493
1527.08;  193.250;   57.750;11506.250; 1.92681
1530.96;  198.250;   39.750;11368.250; 1.85414
1534.83;  229.250;   52.750;11249.250; 1.80234
1538.70;  220.250;   57.750;11082.250; 1.83151
1542.56;  208.250;   28.750;10958.250; 1.78454
1546.42;  215.250;   39.750;10836.250; 1.78901
1550.28;  238.250;   58.750;10683.250; 1.77224
1554.14;  229.250;   39.750;10510.250; 1.74236
1557.99;  233.250;   41.750;10388.250; 1.73262
1561.84;  221.250;   33.750;10234.250; 1.73562
1565.69;  244.250;   40.750;10095.250; 1.69380
1569.54;  224.250;   24.750; 9939.250; 1.69633
1573.38;  249.250;   40.750; 9804.250; 1.67050
1577.22;  235.250;   31.750; 9649.250; 1.67450
1581.05;  251.250;   49.750; 9522.250; 1.67219
1584.89;  241.250;   45.750; 9369.250; 1.67843
1588.72;  249.250;   41.750; 9215.250; 1.64552
1592.54;  241.250;   35.750; 9061.250; 1.64266
1596.37;  248.250;   22.750; 8908.250; 1.59554
1600.19;  258.250;   43.750; 8774.250; 1.60961
1604.01;  251.250;   33.750; 8610.250; 1.59585
1607.82;  241.250;   31.750; 8473.250; 1.60524
1611.63;  233.250;   22.750; 8316.250; 1.59549
1615.44;  261.250;   26.750; 8167.250; 1.54051
1619.25;  254.250;   34.750; 7998.250; 1.55967
1623.05;  232.250;   13.750; 7822.250; 1.55312
1626.85;  243.250;   26.750; 7668.250; 1.54772
1630.64;  247.250;   42.750; 7511.250; 1.56254
1634.44;  231.250;   26.750; 7307.250; 1.55147
1638.23;  220.250;   18.750; 7114.250; 1.54671
1642.01;  223.250;   39.750; 6938.250; 1.57512
1645.80;  230.250;   42.750; 6743.250; 1.55311
1649.58;  224.250;   38.750; 6531.250; 1.54407
1653.35;  236.250;   44.750; 6309.250; 1.51472
1657.13;  209.250;   36.750; 6064.250; 1.54335
1660.90;  202.250;   34.750; 5808.250; 1.53742
1664.67;  202.250;   28.750; 5491.250; 1.49809
1668.43;  197.250;   24.750; 5119.250; 1.47031
1672.19;  183.250;   35.750; 4656.250; 1.49590
1675.95;  151.250;   31.750; 4113.250; 1.53345
1679.70;  152.250;   46.750; 3563.250; 1.52286
1683.46;  134.250;   23.750; 3047.250; 1.43715
1687.20;  143.250;   39.750; 2617.250; 1.39626
1690.95;  124.250;   36.750; 2243.250; 1.40170
1694.69;  126.250;   56.750; 1964.250; 1.43848
1698.43;  103.250;   22.750; 1699.250; 1.31861
1702.16;  106.250;   44.750; 1533.250; 1.38387
1705.89;  100.250;   30.750; 1372.250; 1.28561
1709.62;  111.250;   25.750; 1277.250; 1.16546
1713.35;   92.250;   17.750; 1187.250; 1.19584
1717.07;  106.250;   42.750; 1123.250; 1.23085
1720.79;  110.250;   41.750; 1064.250; 1.17397
1724.50;  109.250;   44.750; 1019.250; 1.17922
1728.21;  100.250;   29.750;  974.250; 1.12701
1731.92;   85.250;   25.750;  931.250; 1.18237
1735.63;   94.250;   34.750;  925.250; 1.17512
1739.33;  102.250;   23.750;  909.250; 1.05232
1743.02;   99.250;   21.750;  865.250; 1.03678
1746.72;  103.250;   33.750;  872.250; 1.08152
1750.41;  113.250;   37.750;  865.250; 1.03982
1754.10;  104.250;   44.750;  846.250; 1.12939

