
Integration time [ms]:   3.780
Averaging Nr. [scans]: 1
Smoothing Nr. [pixels]: 0
Data measured with spectrometer [name]: 1911294U1
Wave   ;Sample   ;Dark     ;Reference;Absorbance
[nm]   ;[counts] ;[counts] ;[counts] ;[A.U]

 860.61;  127.250;   67.750;  833.250; 1.10943
 864.82;  136.250;   49.750;  998.250; 1.04002
 869.02;  151.250;   59.750; 1169.250; 1.08371
 873.23;  168.250;   54.750; 1288.250; 1.03614
 877.43;  160.250;   53.750; 1415.250; 1.10667
 881.63;  177.250;   54.750; 1540.250; 1.08374
 885.83;  181.250;   49.750; 1684.250; 1.09446
 890.03;  191.250;   28.750; 1796.250; 1.03651
 894.23;  203.250;   40.750; 1929.250; 1.06526
 898.42;  223.250;   37.750; 2071.250; 1.03990
 902.62;  234.250;   56.750; 2213.250; 1.08455
 906.81;  240.250;   35.750; 2337.250; 1.05132
 911.00;  253.250;   53.750; 2523.250; 1.09267
 915.19;  275.250;   45.750; 2712.250; 1.06516
 919.38;  303.250;   47.750; 2963.250; 1.05732
 923.57;  332.250;   53.750; 3292.250; 1.06552
 927.76;  351.250;   40.750; 3728.250; 1.07467
 931.94;  392.250;   39.750; 4163.250; 1.06811
 936.13;  433.250;   53.750; 4579.250; 1.07645
 940.31;  449.250;   50.750; 4873.250; 1.08284
 944.49;  475.250;   63.750; 5167.250; 1.09350
 948.67;  481.250;   49.750; 5411.250; 1.09431
 952.85;  485.250;   50.750; 5679.250; 1.11240
 957.03;  508.250;   47.750; 5965.250; 1.10891
 961.21;  540.250;   58.750; 6236.250; 1.10822
 965.38;  557.250;   44.750; 6471.250; 1.09828
 969.55;  546.250;   37.750; 6719.250; 1.11858
 973.73;  584.250;   56.750; 6971.250; 1.11754
 977.90;  587.250;   42.750; 7222.250; 1.12010
 982.06;  617.250;   44.750; 7469.250; 1.11289
 986.23;  628.250;   51.750; 7739.250; 1.12499
 990.40;  684.250;   61.750; 7985.250; 1.10478
 994.56;  683.250;   65.750; 8243.250; 1.12198
 998.72;  689.250;   58.750; 8450.250; 1.12415
1002.88;  704.250;   57.750; 8670.250; 1.12456
1007.04;  731.250;   52.750; 8879.250; 1.11424
1011.20;  725.250;   49.750; 9068.250; 1.12551
1015.36;  747.250;   45.750; 9257.250; 1.11830
1019.51;  750.250;   60.750; 9402.250; 1.13188
1023.67;  773.250;   69.750; 9574.250; 1.13067
1027.82;  787.250;   61.750; 9729.250; 1.12468
1031.97;  792.250;   55.750; 9851.250; 1.12385
1036.12;  801.250;   49.750;10022.250; 1.12288
1040.27;  818.250;   61.750;10174.250; 1.12605
1044.41;  826.250;   73.750;10320.250; 1.13407
1048.56;  837.250;   53.750;10468.250; 1.12360
1052.70;  851.250;   58.750;10629.250; 1.12510
1056.84;  858.250;   47.750;10798.250; 1.12268
1060.98;  884.250;   67.750;10996.250; 1.12660
1065.11;  894.250;   63.750;11181.250; 1.12667
1069.25;  912.250;   63.750;11391.250; 1.12548
1073.38;  921.250;   56.750;11632.250; 1.12677
1077.52;  958.250;   70.750;11862.250; 1.12340
1081.65;  961.250;   62.750;12105.250; 1.12720
1085.77;  956.250;   60.750;12352.250; 1.13754
1089.90;  983.250;   56.750;12603.250; 1.13168
1094.03;  998.250;   65.750;12857.250; 1.13727
1098.15; 1022.250;   68.750;13146.250; 1.13720
1102.27; 1022.250;   66.750;13436.250; 1.14588
1106.39; 1057.250;   69.750;13733.250; 1.14102
1110.51; 1079.250;   69.750;14055.250; 1.14157
1114.63; 1102.250;   49.750;14464.250; 1.13658
1118.74; 1130.250;   73.750;14874.250; 1.14641
1122.85; 1144.250;   70.750;15167.250; 1.14807
1126.96; 1142.250;   61.750;15350.250; 1.15074
1131.07; 1131.250;   57.750;15457.250; 1.15670
1135.18; 1128.250;   63.750;15545.250; 1.16267
1139.29; 1118.250;   45.750;15604.250; 1.16157
1143.39; 1107.250;   62.750;15613.250; 1.17284
1147.49; 1070.250;   71.750;15592.250; 1.19156
1151.59; 1055.250;   71.750;15618.250; 1.19886
1155.69; 1043.250;   64.750;15618.250; 1.20127
1159.78; 1044.250;   61.750;15619.250; 1.19961
1163.88; 1031.250;   66.750;15654.250; 1.20847
1167.97; 1022.250;   60.750;15657.250; 1.21008
1172.06;  995.250;   60.750;15668.250; 1.22275
1176.15;  987.250;   53.750;15670.250; 1.22347
1180.23; 1007.250;   59.750;15679.250; 1.21709
1184.32;  969.250;   50.750;15690.250; 1.23114
1188.40;  988.250;   57.750;15712.250; 1.22592
1192.48;  975.250;   55.750;15725.250; 1.23150
1196.56;  981.250;   53.750;15754.250; 1.22860
1200.64;  995.250;   72.750;15783.250; 1.23122
1204.71;  982.250;   50.750;15806.250; 1.22825
1208.78; 1001.250;   69.750;15849.250; 1.22891
1212.85; 1005.250;   54.750;15854.250; 1.22069
1216.92;  974.250;   37.750;15840.250; 1.22722
1220.99;  995.250;   49.750;15897.250; 1.22430
1225.05; 1006.250;   60.750;15920.250; 1.22463
1229.11;  982.250;   53.750;15924.250; 1.23281
1233.17;  998.250;   58.750;15926.250; 1.22761
1237.23; 1012.250;   49.750;15943.250; 1.21782
1241.29;  999.250;   51.750;15960.250; 1.22505
1245.34; 1018.250;   79.750;16029.250; 1.23031
1249.39; 1004.250;   55.750;16081.250; 1.22777
1253.44; 1010.250;   36.750;16122.250; 1.21810
1257.49; 1027.250;   73.750;16225.250; 1.22889
1261.53; 1025.250;   40.750;16273.250; 1.21717
1265.58; 1030.250;   46.750;16338.250; 1.21919
1269.62; 1035.250;   46.750;16412.250; 1.21895
1273.65; 1024.250;   55.750;16472.250; 1.22918
1277.69; 1033.250;   53.750;16552.250; 1.22644
1281.72; 1038.250;   65.750;16612.250; 1.23082
1285.76; 1042.250;   66.750;16662.250; 1.23076
1289.79; 1021.250;   56.750;16697.250; 1.23686
1293.81; 1035.250;   44.750;16713.250; 1.22604
1297.84; 1026.250;   49.750;16765.250; 1.23345
1301.86; 1028.250;   43.750;16807.250; 1.23115
1305.88; 1002.250;   58.750;16824.250; 1.24967
1309.90; 1008.250;   49.750;16842.250; 1.24352
1313.92;  981.250;   55.750;16828.250; 1.25822
1317.93; 1002.250;   65.750;16838.250; 1.25309
1321.94;  963.250;   46.750;16825.250; 1.26262
1325.95;  960.250;   64.750;16797.250; 1.27150
1329.96;  955.250;   63.750;16802.250; 1.27360
1333.96;  934.250;   52.750;16773.250; 1.27803
1337.96;  902.250;   63.750;16776.250; 1.29954
1341.96;  891.250;   46.750;16748.250; 1.29616
1345.96;  867.250;   59.750;16622.250; 1.31198
1349.95;  851.250;   42.750;16410.250; 1.30630
1353.95;  834.250;   67.750;16154.250; 1.32195
1357.94;  798.250;   50.750;15843.250; 1.32484
1361.92;  779.250;   50.750;15571.250; 1.32848
1365.91;  745.250;   46.750;15308.250; 1.33943
1369.89;  715.250;   50.750;15042.250; 1.35335
1373.87;  688.250;   48.750;14460.250; 1.35287
1377.85;  626.250;   60.750;13607.250; 1.37939
1381.82;  563.250;   48.750;12795.250; 1.39401
1385.80;  522.250;   50.750;12441.250; 1.41961
1389.77;  495.250;   54.750;12376.250; 1.44672
1393.74;  459.250;   63.750;12523.250; 1.49835
1397.70;  452.250;   57.750;12861.250; 1.51128
1401.66;  403.250;   57.750;13177.250; 1.57947
1405.62;  394.250;   34.750;13448.250; 1.57184
1409.58;  389.250;   50.750;13653.250; 1.60406
1413.54;  375.250;   50.750;13787.250; 1.62666
1417.49;  355.250;   27.750;13838.250; 1.62500
1421.44;  367.250;   63.750;13894.250; 1.65868
1425.39;  348.250;   54.750;13879.250; 1.67304
1429.33;  370.250;   64.750;13864.250; 1.65485
1433.27;  347.250;   54.750;13809.250; 1.67232
1437.21;  327.250;   48.750;13776.250; 1.69277
1441.15;  339.250;   52.750;13748.250; 1.67945
1445.09;  339.250;   60.750;13691.250; 1.68969
1449.02;  322.250;   57.750;13611.250; 1.70963
1452.95;  333.250;   52.750;13536.250; 1.68187
1456.87;  319.250;   53.750;13439.250; 1.70257
1460.80;  329.250;   43.750;13345.250; 1.66829
1464.72;  313.250;   59.750;13253.250; 1.71638
1468.64;  310.250;   43.750;13131.250; 1.69116
1472.55;  320.250;   63.750;13051.250; 1.70444
1476.47;  315.250;   43.750;12969.250; 1.67768
1480.38;  314.250;   38.750;12870.250; 1.66816
1484.28;  328.250;   54.750;12750.250; 1.66669
1488.19;  318.250;   50.750;12663.250; 1.67348
1492.09;  299.250;   28.750;12533.250; 1.66490
1495.99;  323.250;   58.750;12434.250; 1.67014
1499.89;  322.250;   46.750;12320.250; 1.64885
1503.78;  331.250;   48.750;12228.250; 1.63461
1507.67;  320.250;   52.750;12113.250; 1.65404
1511.56;  301.250;   33.750;11982.250; 1.64999
1515.44;  315.250;   50.750;11884.250; 1.65069
1519.33;  322.250;   48.750;11757.250; 1.63154
1523.21;  329.250;   35.750;11649.250; 1.59736
1527.08;  315.250;   57.750;11506.250; 1.64797
1530.96;  330.250;   39.750;11368.250; 1.59103
1534.83;  339.250;   52.750;11249.250; 1.59196
1538.70;  332.250;   57.750;11082.250; 1.60382
1542.56;  318.250;   28.750;10958.250; 1.57695
1546.42;  325.250;   39.750;10836.250; 1.57768
1550.28;  330.250;   58.750;10683.250; 1.59254
1554.14;  319.250;   39.750;10510.250; 1.57359
1557.99;  327.250;   41.750;10388.250; 1.55919
1561.84;  320.250;   33.750;10234.250; 1.55150
1565.69;  314.250;   40.750;10095.250; 1.56540
1569.54;  322.250;   24.750; 9939.250; 1.52278
1573.38;  311.250;   40.750; 9804.250; 1.55744
1577.22;  315.250;   31.750; 9649.250; 1.53051
1581.05;  309.250;   49.750; 9522.250; 1.56233
1584.89;  322.250;   45.750; 9369.250; 1.52788
1588.72;  318.250;   41.750; 9215.250; 1.52084
1592.54;  313.250;   35.750; 9061.250; 1.51221
1596.37;  305.250;   22.750; 8908.250; 1.49766
1600.19;  314.250;   43.750; 8774.250; 1.50887
1604.01;  304.250;   33.750; 8610.250; 1.50114
1607.82;  302.250;   31.750; 8473.250; 1.49425
1611.63;  290.250;   22.750; 8316.250; 1.49141
1615.44;  298.250;   26.750; 8167.250; 1.47688
1619.25;  276.250;   34.750; 7998.250; 1.51819
1623.05;  289.250;   13.750; 7822.250; 1.45245
1626.85;  282.250;   26.750; 7668.250; 1.47579
1630.64;  280.250;   42.750; 7511.250; 1.49757
1634.44;  272.250;   26.750; 7307.250; 1.47211
1638.23;  263.250;   18.750; 7114.250; 1.46270
1642.01;  256.250;   39.750; 6938.250; 1.50330
1645.80;  280.250;   42.750; 6743.250; 1.45044
1649.58;  251.250;   38.750; 6531.250; 1.48505
1653.35;  247.250;   44.750; 6309.250; 1.49046
1657.13;  245.250;   36.750; 6064.250; 1.46103
1660.90;  247.250;   34.750; 5808.250; 1.43408
1664.67;  217.250;   28.750; 5491.250; 1.46208
1668.43;  219.250;   24.750; 5119.250; 1.41818
1672.19;  191.250;   35.750; 4656.250; 1.47296
1675.95;  194.250;   31.750; 4113.250; 1.39997
1679.70;  149.250;   46.750; 3563.250; 1.53539
1683.46;  138.250;   23.750; 3047.250; 1.42170
1687.20;  135.250;   39.750; 2617.250; 1.43120
1690.95;  125.250;   36.750; 2243.250; 1.39676
1694.69;  114.250;   56.750; 1964.250; 1.52080
1698.43;  120.250;   22.750; 1699.250; 1.23540
1702.16;  116.250;   44.750; 1533.250; 1.31844
1705.89;  101.250;   30.750; 1372.250; 1.27940
1709.62;   98.250;   25.750; 1277.250; 1.23709
1713.35;  102.250;   17.750; 1187.250; 1.14114
1717.07;  103.250;   42.750; 1123.250; 1.25187
1720.79;  111.250;   41.750; 1064.250; 1.16768
1724.50;   90.250;   44.750; 1019.250; 1.33077
1728.21;   94.250;   29.750;  974.250; 1.16564
1731.92;   94.250;   25.750;  931.250; 1.12120
1735.63;   89.250;   34.750;  925.250; 1.21324
1739.33;   99.250;   23.750;  909.250; 1.06924
1743.02;   98.250;   21.750;  865.250; 1.04242
1746.72;  100.250;   33.750;  872.250; 1.10068
1750.41;  104.250;   37.750;  865.250; 1.09495
1754.10;   98.250;   44.750;  846.250; 1.17555

