
Integration time [ms]:   3.780
Averaging Nr. [scans]: 1
Smoothing Nr. [pixels]: 0
Data measured with spectrometer [name]: 1911294U1
Wave   ;Sample   ;Dark     ;Reference;Absorbance
[nm]   ;[counts] ;[counts] ;[counts] ;[A.U]

 860.61;  121.500;   67.750;  833.250; 1.15357
 864.82;  126.500;   49.750;  998.250; 1.09196
 869.02;  138.500;   59.750; 1169.250; 1.14888
 873.23;  142.500;   54.750; 1288.250; 1.14789
 877.43;  146.500;   53.750; 1415.250; 1.16670
 881.63;  166.500;   54.750; 1540.250; 1.12363
 885.83;  173.500;   49.750; 1684.250; 1.12084
 890.03;  155.500;   28.750; 1796.250; 1.14441
 894.23;  175.500;   40.750; 1929.250; 1.14659
 898.42;  187.500;   37.750; 2071.250; 1.13288
 902.62;  195.500;   56.750; 2213.250; 1.19152
 906.81;  206.500;   35.750; 2337.250; 1.12965
 911.00;  219.500;   53.750; 2523.250; 1.17316
 915.19;  233.500;   45.750; 2712.250; 1.15236
 919.38;  263.500;   47.750; 2963.250; 1.13076
 923.57;  277.500;   53.750; 3292.250; 1.16058
 927.76;  283.500;   40.750; 3728.250; 1.18157
 931.94;  323.500;   39.750; 4163.250; 1.16233
 936.13;  352.500;   53.750; 4579.250; 1.18036
 940.31;  363.500;   50.750; 4873.250; 1.18807
 944.49;  392.500;   63.750; 5167.250; 1.19100
 948.67;  391.500;   49.750; 5411.250; 1.19558
 952.85;  403.500;   50.750; 5679.250; 1.20293
 957.03;  436.500;   47.750; 5965.250; 1.18247
 961.21;  441.500;   58.750; 6236.250; 1.20790
 965.38;  440.500;   44.750; 6471.250; 1.21055
 969.55;  435.500;   37.750; 6719.250; 1.22526
 973.73;  463.500;   56.750; 6971.250; 1.23043
 977.90;  488.500;   42.750; 7222.250; 1.20700
 982.06;  518.500;   44.750; 7469.250; 1.19512
 986.23;  510.500;   51.750; 7739.250; 1.22421
 990.40;  533.500;   61.750; 7985.250; 1.22521
 994.56;  563.500;   65.750; 8243.250; 1.21561
 998.72;  558.500;   58.750; 8450.250; 1.22509
1002.88;  579.500;   57.750; 8670.250; 1.21767
1007.04;  593.500;   52.750; 8879.250; 1.21279
1011.20;  590.500;   49.750; 9068.250; 1.22214
1015.36;  621.500;   45.750; 9257.250; 1.20410
1019.51;  629.500;   60.750; 9402.250; 1.21550
1023.67;  635.500;   69.750; 9574.250; 1.22530
1027.82;  650.500;   61.750; 9729.250; 1.21538
1031.97;  667.500;   55.750; 9851.250; 1.20445
1036.12;  668.500;   49.750;10022.250; 1.20729
1040.27;  680.500;   61.750;10174.250; 1.21334
1044.41;  683.500;   73.750;10320.250; 1.22542
1048.56;  691.500;   53.750;10468.250; 1.21299
1052.70;  713.500;   58.750;10629.250; 1.20802
1056.84;  720.500;   47.750;10798.250; 1.20357
1060.98;  732.500;   67.750;10996.250; 1.21590
1065.11;  741.500;   63.750;11181.250; 1.21494
1069.25;  743.500;   63.750;11391.250; 1.22178
1073.38;  782.500;   56.750;11632.250; 1.20275
1077.52;  790.500;   70.750;11862.250; 1.21439
1081.65;  794.500;   62.750;12105.250; 1.21635
1085.77;  798.500;   60.750;12352.250; 1.22170
1089.90;  811.500;   56.750;12603.250; 1.22072
1094.03;  841.500;   65.750;12857.250; 1.21720
1098.15;  837.500;   68.750;13146.250; 1.23074
1102.27;  843.500;   66.750;13436.250; 1.23583
1106.39;  885.500;   69.750;13733.250; 1.22400
1110.51;  879.500;   69.750;14055.250; 1.23733
1114.63;  906.500;   49.750;14464.250; 1.22595
1118.74;  928.500;   73.750;14874.250; 1.23844
1122.85;  945.500;   70.750;15167.250; 1.23699
1126.96;  936.500;   61.750;15350.250; 1.24248
1131.07;  937.500;   57.750;15457.250; 1.24315
1135.18;  915.500;   63.750;15545.250; 1.25950
1139.29;  904.500;   45.750;15604.250; 1.25810
1143.39;  882.500;   62.750;15613.250; 1.27806
1147.49;  852.500;   71.750;15592.250; 1.29839
1151.59;  832.500;   71.750;15618.250; 1.31039
1155.69;  831.500;   64.750;15618.250; 1.30717
1159.78;  824.500;   61.750;15619.250; 1.30956
1163.88;  825.500;   66.750;15654.250; 1.31268
1167.97;  792.500;   60.750;15657.250; 1.32866
1172.06;  794.500;   60.750;15668.250; 1.32779
1176.15;  779.500;   53.750;15670.250; 1.33280
1180.23;  786.500;   59.750;15679.250; 1.33228
1184.32;  768.500;   50.750;15690.250; 1.33825
1188.40;  780.500;   57.750;15712.250; 1.33565
1192.48;  775.500;   55.750;15725.250; 1.33787
1196.56;  787.500;   53.750;15754.250; 1.33037
1200.64;  789.500;   72.750;15783.250; 1.34082
1204.71;  790.500;   50.750;15806.250; 1.32835
1208.78;  794.500;   69.750;15849.250; 1.33791
1212.85;  793.500;   54.750;15854.250; 1.33015
1216.92;  769.500;   37.750;15840.250; 1.33436
1220.99;  798.500;   49.750;15897.250; 1.32562
1225.05;  817.500;   60.750;15920.250; 1.32134
1229.11;  791.500;   53.750;15924.250; 1.33268
1233.17;  812.500;   58.750;15926.250; 1.32328
1237.23;  804.500;   49.750;15943.250; 1.32342
1241.29;  807.500;   51.750;15960.250; 1.32325
1245.34;  826.500;   79.750;16029.250; 1.32957
1249.39;  823.500;   55.750;16081.250; 1.31959
1253.44;  830.500;   36.750;16122.250; 1.30675
1257.49;  848.500;   73.750;16225.250; 1.31905
1261.53;  845.500;   40.750;16273.250; 1.30472
1265.58;  849.500;   46.750;16338.250; 1.30738
1269.62;  837.500;   46.750;16412.250; 1.31589
1273.65;  837.500;   55.750;16472.250; 1.32221
1277.69;  852.500;   53.750;16552.250; 1.31503
1281.72;  854.500;   65.750;16612.250; 1.32177
1285.76;  852.500;   66.750;16662.250; 1.32471
1289.79;  838.500;   56.750;16697.250; 1.32810
1293.81;  838.500;   44.750;16713.250; 1.32221
1297.84;  826.500;   49.750;16765.250; 1.33284
1301.86;  827.500;   43.750;16807.250; 1.33019
1305.88;  820.500;   58.750;16824.250; 1.34260
1309.90;  823.500;   49.750;16842.250; 1.33651
1313.92;  791.500;   55.750;16828.250; 1.35787
1317.93;  781.500;   65.750;16838.250; 1.36984
1321.94;  769.500;   46.750;16825.250; 1.36577
1325.95;  762.500;   64.750;16797.250; 1.37986
1329.96;  743.500;   63.750;16802.250; 1.39137
1333.96;  713.500;   52.750;16773.250; 1.40321
1337.96;  692.500;   63.750;16776.250; 1.42456
1341.96;  666.500;   46.750;16748.250; 1.43054
1345.96;  645.500;   59.750;16622.250; 1.45141
1349.95;  625.500;   42.750;16410.250; 1.44850
1353.95;  604.500;   67.750;16154.250; 1.47669
1357.94;  586.500;   50.750;15843.250; 1.46949
1361.92;  555.500;   50.750;15571.250; 1.48783
1365.91;  538.500;   46.750;15308.250; 1.49185
1369.89;  504.500;   50.750;15042.250; 1.51903
1373.87;  462.500;   48.750;14460.250; 1.54197
1377.85;  413.500;   60.750;13607.250; 1.58436
1381.82;  355.500;   48.750;12795.250; 1.61861
1385.80;  321.500;   50.750;12441.250; 1.66052
1389.77;  290.500;   54.750;12376.250; 1.71821
1393.74;  257.500;   63.750;12523.250; 1.80826
1397.70;  206.500;   57.750;12861.250; 1.93487
1401.66;  171.500;   57.750;13177.250; 2.06197
1405.62;  158.500;   34.750;13448.250; 2.03500
1409.58;  137.500;   50.750;13653.250; 2.19535
1413.54;  130.500;   50.750;13787.250; 2.23615
1417.49;  105.500;   27.750;13838.250; 2.24951
1421.44;  111.500;   63.750;13894.250; 2.46186
1425.39;  113.500;   54.750;13879.250; 2.37164
1429.33;  126.500;   64.750;13864.250; 2.34923
1433.27;  103.500;   54.750;13809.250; 2.45047
1437.21;   98.500;   48.750;13776.250; 2.44080
1441.15;  109.500;   52.750;13748.250; 2.38261
1445.09;  104.500;   60.750;13691.250; 2.49353
1449.02;   97.500;   57.750;13611.250; 2.53271
1452.95;   97.500;   52.750;13536.250; 2.47901
1456.87;   97.500;   53.750;13439.250; 2.48566
1460.80;   90.500;   43.750;13345.250; 2.45412
1464.72;   92.500;   59.750;13253.250; 2.60515
1468.64;   88.500;   43.750;13131.250; 2.46606
1472.55;  100.500;   63.750;13051.250; 2.54827
1476.47;   92.500;   43.750;12969.250; 2.42347
1480.38;  105.500;   38.750;12870.250; 2.28383
1484.28;  100.500;   54.750;12750.250; 2.44326
1488.19;  110.500;   50.750;12663.250; 2.32446
1492.09;  104.500;   28.750;12533.250; 2.21768
1495.99;  124.500;   58.750;12434.250; 2.27467
1499.89;  130.500;   46.750;12320.250; 2.16598
1503.78;  120.500;   48.750;12228.250; 2.22981
1507.67;  125.500;   52.750;12113.250; 2.21953
1511.56;  116.500;   33.750;11982.250; 2.15955
1515.44;  136.500;   50.750;11884.250; 2.13988
1519.33;  131.500;   48.750;11757.250; 2.15073
1523.21;  120.500;   35.750;11649.250; 2.13682
1527.08;  144.500;   57.750;11506.250; 2.12048
1530.96;  140.500;   39.750;11368.250; 2.05093
1534.83;  160.500;   52.750;11249.250; 2.01667
1538.70;  155.500;   57.750;11082.250; 2.05224
1542.56;  142.500;   28.750;10958.250; 1.98265
1546.42;  160.500;   39.750;10836.250; 1.95140
1550.28;  166.500;   58.750;10683.250; 1.99389
1554.14;  154.500;   39.750;10510.250; 1.96021
1557.99;  169.500;   41.750;10388.250; 1.90843
1561.84;  167.500;   33.750;10234.250; 1.88233
1565.69;  166.500;   40.750;10095.250; 1.90285
1569.54;  163.500;   24.750; 9939.250; 1.85404
1573.38;  173.500;   40.750; 9804.250; 1.86657
1577.22;  182.500;   31.750; 9649.250; 1.80480
1581.05;  183.500;   49.750; 9522.250; 1.85017
1584.89;  207.500;   45.750; 9369.250; 1.76073
1588.72;  175.500;   41.750; 9215.250; 1.83624
1592.54;  190.500;   35.750; 9061.250; 1.76584
1596.37;  189.500;   22.750; 8908.250; 1.72662
1600.19;  175.500;   43.750; 8774.250; 1.82129
1604.01;  189.500;   33.750; 8610.250; 1.74088
1607.82;  175.500;   31.750; 8473.250; 1.76881
1611.63;  163.500;   22.750; 8316.250; 1.77029
1615.44;  180.500;   26.750; 8167.250; 1.72384
1619.25;  171.500;   34.750; 7998.250; 1.76518
1623.05;  180.500;   13.750; 7822.250; 1.67050
1626.85;  185.500;   26.750; 7668.250; 1.68246
1630.64;  179.500;   42.750; 7511.250; 1.73731
1634.44;  186.500;   26.750; 7307.250; 1.65872
1638.23;  159.500;   18.750; 7114.250; 1.70253
1642.01;  174.500;   39.750; 6938.250; 1.70923
1645.80;  170.500;   42.750; 6743.250; 1.71975
1649.58;  183.500;   38.750; 6531.250; 1.65179
1653.35;  173.500;   44.750; 6309.250; 1.68714
1657.13;  153.500;   36.750; 6064.250; 1.71288
1660.90;  163.500;   34.750; 5808.250; 1.65169
1664.67;  155.500;   28.750; 5491.250; 1.63444
1668.43;  141.500;   24.750; 5119.250; 1.63984
1672.19;  146.500;   35.750; 4656.250; 1.62035
1675.95;  138.500;   31.750; 4113.250; 1.58245
1679.70;  113.500;   46.750; 3563.250; 1.72166
1683.46;  119.500;   23.750; 3047.250; 1.49937
1687.20;  108.500;   39.750; 2617.250; 1.57393
1690.95;  121.500;   36.750; 2243.250; 1.41556
1694.69;  107.500;   56.750; 1964.250; 1.57503
1698.43;   94.500;   22.750; 1699.250; 1.36858
1702.16;  103.500;   44.750; 1533.250; 1.40374
1705.89;   92.500;   30.750; 1372.250; 1.33695
1709.62;   94.500;   25.750; 1277.250; 1.26016
1713.35;   99.500;   17.750; 1187.250; 1.15551
1717.07;   93.500;   42.750; 1123.250; 1.32819
1720.79;   89.500;   41.750; 1064.250; 1.33069
1724.50;   90.500;   44.750; 1019.250; 1.32839
1728.21;   91.500;   29.750;  974.250; 1.18456
1731.92;   91.500;   25.750;  931.250; 1.13899
1735.63;   88.500;   34.750;  925.250; 1.21926
1739.33;  104.500;   23.750;  909.250; 1.04005
1743.02;   83.500;   21.750;  865.250; 1.13545
1746.72;   89.500;   33.750;  872.250; 1.17726
1750.41;   95.500;   37.750;  865.250; 1.15622
1754.10;   90.500;   44.750;  846.250; 1.24351

