
Integration time [ms]:   3.780
Averaging Nr. [scans]: 1
Smoothing Nr. [pixels]: 0
Data measured with spectrometer [name]: 1911294U1
Wave   ;Sample   ;Dark     ;Reference;Absorbance
[nm]   ;[counts] ;[counts] ;[counts] ;[A.U]

 860.61;  115.250;   67.750;  833.250; 1.20725
 864.82;  107.250;   49.750;  998.250; 1.21737
 869.02;  127.250;   59.750; 1169.250; 1.21582
 873.23;  136.250;   54.750; 1288.250; 1.17998
 877.43;  151.250;   53.750; 1415.250; 1.14501
 881.63;  151.250;   54.750; 1540.250; 1.18735
 885.83;  159.250;   49.750; 1684.250; 1.17397
 890.03;  167.250;   28.750; 1796.250; 1.10591
 894.23;  165.250;   40.750; 1929.250; 1.18095
 898.42;  181.250;   37.750; 2071.250; 1.15139
 902.62;  191.250;   56.750; 2213.250; 1.20503
 906.81;  203.250;   35.750; 2337.250; 1.13800
 911.00;  223.250;   53.750; 2523.250; 1.16344
 915.19;  226.250;   45.750; 2712.250; 1.16946
 919.38;  256.250;   47.750; 2963.250; 1.14561
 923.57;  267.250;   53.750; 3292.250; 1.18095
 927.76;  297.250;   40.750; 3728.250; 1.15764
 931.94;  325.250;   39.750; 4163.250; 1.15966
 936.13;  342.250;   53.750; 4579.250; 1.19552
 940.31;  371.250;   50.750; 4873.250; 1.17744
 944.49;  403.250;   63.750; 5167.250; 1.17703
 948.67;  406.250;   49.750; 5411.250; 1.17723
 952.85;  414.250;   50.750; 5679.250; 1.18989
 957.03;  436.250;   47.750; 5965.250; 1.18275
 961.21;  449.250;   58.750; 6236.250; 1.19919
 965.38;  461.250;   44.750; 6471.250; 1.18836
 969.55;  466.250;   37.750; 6719.250; 1.19292
 973.73;  494.250;   56.750; 6971.250; 1.19878
 977.90;  481.250;   42.750; 7222.250; 1.21412
 982.06;  522.250;   44.750; 7469.250; 1.19169
 986.23;  532.250;   51.750; 7739.250; 1.20409
 990.40;  556.250;   61.750; 7985.250; 1.20475
 994.56;  574.250;   65.750; 8243.250; 1.20633
 998.72;  592.250;   58.750; 8450.250; 1.19671
1002.88;  588.250;   57.750; 8670.250; 1.21044
1007.04;  615.250;   52.750; 8879.250; 1.19567
1011.20;  621.250;   49.750; 9068.250; 1.19812
1015.36;  634.250;   45.750; 9257.250; 1.19458
1019.51;  645.250;   60.750; 9402.250; 1.20363
1023.67;  671.250;   69.750; 9574.250; 1.19869
1027.82;  683.250;   61.750; 9729.250; 1.19187
1031.97;  676.250;   55.750; 9851.250; 1.19828
1036.12;  684.250;   49.750;10022.250; 1.19637
1040.27;  702.250;   61.750;10174.250; 1.19834
1044.41;  719.250;   73.750;10320.250; 1.20068
1048.56;  729.250;   53.750;10468.250; 1.18801
1052.70;  741.250;   58.750;10629.250; 1.18999
1056.84;  741.250;   47.750;10798.250; 1.19038
1060.98;  752.250;   67.750;10996.250; 1.20319
1065.11;  773.250;   63.750;11181.250; 1.19505
1069.25;  774.250;   63.750;11391.250; 1.20257
1073.38;  794.250;   56.750;11632.250; 1.19578
1077.52;  816.250;   70.750;11862.250; 1.19912
1081.65;  827.250;   62.750;12105.250; 1.19734
1085.77;  834.250;   60.750;12352.250; 1.20114
1089.90;  850.250;   56.750;12603.250; 1.19898
1094.03;  862.250;   65.750;12857.250; 1.20574
1098.15;  891.250;   68.750;13146.250; 1.20139
1102.27;  895.250;   66.750;13436.250; 1.20782
1106.39;  920.250;   69.750;13733.250; 1.20589
1110.51;  924.250;   69.750;14055.250; 1.21397
1114.63;  928.250;   49.750;14464.250; 1.21506
1118.74;  975.250;   73.750;14874.250; 1.21531
1122.85;  995.250;   70.750;15167.250; 1.21297
1126.96;  981.250;   61.750;15350.250; 1.22081
1131.07;  987.250;   57.750;15457.250; 1.21926
1135.18;  961.250;   63.750;15545.250; 1.23678
1139.29;  943.250;   45.750;15604.250; 1.23893
1143.39;  925.250;   62.750;15613.250; 1.25599
1147.49;  904.250;   71.750;15592.250; 1.27052
1151.59;  887.250;   71.750;15618.250; 1.28021
1155.69;  882.250;   64.750;15618.250; 1.27934
1159.78;  861.250;   61.750;15619.250; 1.28912
1163.88;  860.250;   66.750;15654.250; 1.29323
1167.97;  851.250;   60.750;15657.250; 1.29513
1172.06;  847.250;   60.750;15668.250; 1.29763
1176.15;  830.250;   53.750;15670.250; 1.30344
1180.23;  832.250;   59.750;15679.250; 1.30577
1184.32;  795.250;   50.750;15690.250; 1.32236
1188.40;  815.250;   57.750;15712.250; 1.31526
1192.48;  811.250;   55.750;15725.250; 1.31682
1196.56;  828.250;   53.750;15754.250; 1.30689
1200.64;  821.250;   72.750;15783.250; 1.32200
1204.71;  821.250;   50.750;15806.250; 1.31066
1208.78;  841.250;   69.750;15849.250; 1.31076
1212.85;  837.250;   54.750;15854.250; 1.30516
1216.92;  835.250;   37.750;15840.250; 1.29700
1220.99;  838.250;   49.750;15897.250; 1.30316
1225.05;  856.250;   60.750;15920.250; 1.29965
1229.11;  848.250;   53.750;15924.250; 1.30050
1233.17;  860.250;   58.750;15926.250; 1.29660
1237.23;  859.250;   49.750;15943.250; 1.29300
1241.29;  850.250;   51.750;15960.250; 1.29935
1245.34;  849.250;   79.750;16029.250; 1.31654
1249.39;  863.250;   55.750;16081.250; 1.29767
1253.44;  869.250;   36.750;16122.250; 1.28605
1257.49;  875.250;   73.750;16225.250; 1.30431
1261.53;  876.250;   40.750;16273.250; 1.28844
1265.58;  880.250;   46.750;16338.250; 1.29106
1269.62;  877.250;   46.750;16412.250; 1.29459
1273.65;  886.250;   55.750;16472.250; 1.29594
1277.69;  883.250;   53.750;16552.250; 1.29863
1281.72;  877.250;   65.750;16612.250; 1.30942
1285.76;  877.250;   66.750;16662.250; 1.31124
1289.79;  884.250;   56.750;16697.250; 1.30340
1293.81;  868.250;   44.750;16713.250; 1.30623
1297.84;  867.250;   49.750;16765.250; 1.31063
1301.86;  866.250;   43.750;16807.250; 1.30923
1305.88;  856.250;   58.750;16824.250; 1.32269
1309.90;  837.250;   49.750;16842.250; 1.32886
1313.92;  823.250;   55.750;16828.250; 1.33952
1317.93;  829.250;   65.750;16838.250; 1.34179
1321.94;  796.250;   46.750;16825.250; 1.34998
1325.95;  785.250;   64.750;16797.250; 1.36593
1329.96;  780.250;   63.750;16802.250; 1.36850
1333.96;  763.250;   52.750;16773.250; 1.37169
1337.96;  718.250;   63.750;16776.250; 1.40713
1341.96;  717.250;   46.750;16748.250; 1.39636
1345.96;  700.250;   59.750;16622.250; 1.41261
1349.95;  661.250;   42.750;16410.250; 1.42264
1353.95;  651.250;   67.750;16154.250; 1.44042
1357.94;  624.250;   50.750;15843.250; 1.43992
1361.92;  596.250;   50.750;15571.250; 1.45411
1365.91;  561.250;   46.750;15308.250; 1.47221
1369.89;  542.250;   50.750;15042.250; 1.48432
1373.87;  497.250;   48.750;14460.250; 1.50695
1377.85;  445.250;   60.750;13607.250; 1.54693
1381.82;  387.250;   48.750;12795.250; 1.57583
1385.80;  348.250;   50.750;12441.250; 1.61960
1389.77;  304.250;   54.750;12376.250; 1.69359
1393.74;  270.250;   63.750;12523.250; 1.78058
1397.70;  236.250;   57.750;12861.250; 1.85569
1401.66;  199.250;   57.750;13177.250; 1.96716
1405.62;  179.250;   34.750;13448.250; 1.96767
1409.58;  163.250;   50.750;13653.250; 2.08247
1413.54;  160.250;   50.750;13787.250; 2.09846
1417.49;  115.250;   27.750;13838.250; 2.19820
1421.44;  125.250;   63.750;13894.250; 2.35196
1425.39;  125.250;   54.750;13879.250; 2.29246
1429.33;  123.250;   64.750;13864.250; 2.37271
1433.27;  113.250;   54.750;13809.250; 2.37129
1437.21;  105.250;   48.750;13776.250; 2.38554
1441.15;  120.250;   52.750;13748.250; 2.30727
1445.09;  114.250;   60.750;13691.250; 2.40616
1449.02;  115.250;   57.750;13611.250; 2.37238
1452.95;  108.250;   52.750;13536.250; 2.38551
1456.87;   92.250;   53.750;13439.250; 2.54117
1460.80;   95.250;   43.750;13345.250; 2.41209
1464.72;  106.250;   59.750;13253.250; 2.45291
1468.64;  107.250;   43.750;13131.250; 2.31408
1472.55;  115.250;   63.750;13051.250; 2.40172
1476.47;  107.250;   43.750;12969.250; 2.30867
1480.38;  103.250;   38.750;12870.250; 2.29872
1484.28;  114.250;   54.750;12750.250; 2.32913
1488.19;  105.250;   50.750;12663.250; 2.36440
1492.09;   87.250;   28.750;12533.250; 2.32991
1495.99;  117.250;   58.750;12434.250; 2.32541
1499.89;  121.250;   46.750;12320.250; 2.21681
1503.78;  130.250;   48.750;12228.250; 2.17447
1507.67;  140.250;   52.750;12113.250; 2.13936
1511.56;  119.250;   33.750;11982.250; 2.14535
1515.44;  130.250;   50.750;11884.250; 2.17275
1519.33;  154.250;   48.750;11757.250; 2.04525
1523.21;  142.250;   35.750;11649.250; 2.03761
1527.08;  157.250;   57.750;11506.250; 2.06093
1530.96;  157.250;   39.750;11368.250; 1.98413
1534.83;  176.250;   52.750;11249.250; 1.95742
1538.70;  166.250;   57.750;11082.250; 2.00693
1542.56;  152.250;   28.750;10958.250; 1.94693
1546.42;  162.250;   39.750;10836.250; 1.94515
1550.28;  184.250;   58.750;10683.250; 1.92766
1554.14;  173.250;   39.750;10510.250; 1.89449
1557.99;  174.250;   41.750;10388.250; 1.89258
1561.84;  179.250;   33.750;10234.250; 1.84576
1565.69;  190.250;   40.750;10095.250; 1.82772
1569.54;  163.250;   24.750; 9939.250; 1.85482
1573.38;  192.250;   40.750; 9804.250; 1.80919
1577.22;  194.250;   31.750; 9649.250; 1.77221
1581.05;  193.250;   49.750; 9522.250; 1.81961
1584.89;  186.250;   45.750; 9369.250; 1.82190
1588.72;  195.250;   41.750; 9215.250; 1.77643
1592.54;  183.250;   35.750; 9061.250; 1.78668
1596.37;  192.250;   22.750; 8908.250; 1.71951
1600.19;  198.250;   43.750; 8774.250; 1.75211
1604.01;  192.250;   33.750; 8610.250; 1.73328
1607.82;  191.250;   31.750; 8473.250; 1.72366
1611.63;  185.250;   22.750; 8316.250; 1.70788
1615.44;  189.250;   26.750; 8167.250; 1.69980
1619.25;  184.250;   34.750; 7998.250; 1.72646
1623.05;  169.250;   13.750; 7822.250; 1.70084
1626.85;  187.250;   26.750; 7668.250; 1.67770
1630.64;  192.250;   42.750; 7511.250; 1.69859
1634.44;  192.250;   26.750; 7307.250; 1.64336
1638.23;  175.250;   18.750; 7114.250; 1.65647
1642.01;  186.250;   39.750; 6938.250; 1.67292
1645.80;  201.250;   42.750; 6743.250; 1.62608
1649.58;  165.250;   38.750; 6531.250; 1.71032
1653.35;  175.250;   44.750; 6309.250; 1.68128
1657.13;  173.250;   36.750; 6064.250; 1.64500
1660.90;  166.250;   34.750; 5808.250; 1.64251
1664.67;  144.250;   28.750; 5491.250; 1.67481
1668.43;  160.250;   24.750; 5119.250; 1.57516
1672.19;  143.250;   35.750; 4656.250; 1.63328
1675.95;  132.250;   31.750; 4113.250; 1.60865
1679.70;  112.250;   46.750; 3563.250; 1.72987
1683.46;   99.250;   23.750; 3047.250; 1.60256
1687.20;  101.250;   39.750; 2617.250; 1.62232
1690.95;  101.250;   36.750; 2243.250; 1.53414
1694.69;   81.250;   56.750; 1964.250; 1.89130
1698.43;   79.250;   22.750; 1699.250; 1.47236
1702.16;   65.250;   44.750; 1533.250; 1.86099
1705.89;   62.250;   30.750; 1372.250; 1.62928
1709.62;   68.250;   25.750; 1277.250; 1.46904
1713.35;   82.250;   17.750; 1187.250; 1.25844
1717.07;   79.250;   42.750; 1123.250; 1.47133
1720.79;   66.250;   41.750; 1064.250; 1.62050
1724.50;   80.250;   44.750; 1019.250; 1.43855
1728.21;   75.250;   29.750;  974.250; 1.31719
1731.92;   60.250;   25.750;  931.250; 1.41907
1735.63;   67.250;   34.750;  925.250; 1.43775
1739.33;   90.250;   23.750;  909.250; 1.12437
1743.02;   81.250;   21.750;  865.250; 1.15157
1746.72;   69.250;   33.750;  872.250; 1.37327
1750.41;   75.250;   37.750;  865.250; 1.34374
1754.10;   79.250;   44.750;  846.250; 1.36608

