
Integration time [ms]:   3.780
Averaging Nr. [scans]: 1
Smoothing Nr. [pixels]: 0
Data measured with spectrometer [name]: 1911294U1
Wave   ;Sample   ;Dark     ;Reference;Absorbance
[nm]   ;[counts] ;[counts] ;[counts] ;[A.U]

 860.61;  117.250;   67.750;  833.250; 1.18934
 864.82;  153.250;   49.750;  998.250; 0.96210
 869.02;  157.250;   59.750; 1169.250; 1.05612
 873.23;  160.250;   54.750; 1288.250; 1.06789
 877.43;  164.250;   53.750; 1415.250; 1.09066
 881.63;  196.250;   54.750; 1540.250; 1.02112
 885.83;  216.250;   49.750; 1684.250; 0.99197
 890.03;  192.250;   28.750; 1796.250; 1.03384
 894.23;  209.250;   40.750; 1929.250; 1.04952
 898.42;  233.250;   37.750; 2071.250; 1.01710
 902.62;  247.250;   56.750; 2213.250; 1.05385
 906.81;  249.250;   35.750; 2337.250; 1.03261
 911.00;  273.250;   53.750; 2523.250; 1.05117
 915.19;  296.250;   45.750; 2712.250; 1.02713
 919.38;  326.250;   47.750; 2963.250; 1.01989
 923.57;  353.250;   53.750; 3292.250; 1.03395
 927.76;  378.250;   40.750; 3728.250; 1.03846
 931.94;  430.250;   39.750; 4163.250; 1.02364
 936.13;  463.250;   53.750; 4579.250; 1.04341
 940.31;  482.250;   50.750; 4873.250; 1.04829
 944.49;  516.250;   63.750; 5167.250; 1.05225
 948.67;  540.250;   49.750; 5411.250; 1.03865
 952.85;  552.250;   50.750; 5679.250; 1.05012
 957.03;  589.250;   47.750; 5965.250; 1.03854
 961.21;  598.250;   58.750; 6236.250; 1.05882
 965.38;  623.250;   44.750; 6471.250; 1.04567
 969.55;  615.250;   37.750; 6719.250; 1.06332
 973.73;  671.250;   56.750; 6971.250; 1.05124
 977.90;  670.250;   42.750; 7222.250; 1.05848
 982.06;  710.250;   44.750; 7469.250; 1.04752
 986.23;  727.250;   51.750; 7739.250; 1.05616
 990.40;  763.250;   61.750; 7985.250; 1.05289
 994.56;  789.250;   65.750; 8243.250; 1.05318
 998.72;  802.250;   58.750; 8450.250; 1.05256
1002.88;  806.250;   57.750; 8670.250; 1.06094
1007.04;  845.250;   52.750; 8879.250; 1.04679
1011.20;  857.250;   49.750; 9068.250; 1.04799
1015.36;  878.250;   45.750; 9257.250; 1.04395
1019.51;  888.250;   60.750; 9402.250; 1.05265
1023.67;  910.250;   69.750; 9574.250; 1.05339
1027.82;  908.250;   61.750; 9729.250; 1.05769
1031.97;  934.250;   55.750; 9851.250; 1.04728
1036.12;  952.250;   49.750;10022.250; 1.04336
1040.27;  965.250;   61.750;10174.250; 1.04893
1044.41;  980.250;   73.750;10320.250; 1.05321
1048.56;  987.250;   53.750;10468.250; 1.04752
1052.70; 1000.250;   58.750;10629.250; 1.05028
1056.84; 1025.250;   47.750;10798.250; 1.04131
1060.98; 1040.250;   67.750;10996.250; 1.05067
1065.11; 1051.250;   63.750;11181.250; 1.05147
1069.25; 1067.250;   63.750;11391.250; 1.05262
1073.38; 1103.250;   56.750;11632.250; 1.04380
1077.52; 1122.250;   70.750;11862.250; 1.04976
1081.65; 1135.250;   62.750;12105.250; 1.05032
1085.77; 1157.250;   60.750;12352.250; 1.04960
1089.90; 1175.250;   56.750;12603.250; 1.04989
1094.03; 1195.250;   65.750;12857.250; 1.05404
1098.15; 1226.250;   68.750;13146.250; 1.05300
1102.27; 1225.250;   66.750;13436.250; 1.06222
1106.39; 1286.250;   69.750;13733.250; 1.05045
1110.51; 1287.250;   69.750;14055.250; 1.06021
1114.63; 1317.250;   49.750;14464.250; 1.05585
1118.74; 1356.250;   73.750;14874.250; 1.06222
1122.85; 1384.250;   70.750;15167.250; 1.06045
1126.96; 1376.250;   61.750;15350.250; 1.06560
1131.07; 1391.250;   57.750;15457.250; 1.06251
1135.18; 1372.250;   63.750;15545.250; 1.07304
1139.29; 1333.250;   45.750;15604.250; 1.08222
1143.39; 1331.250;   62.750;15613.250; 1.08845
1147.49; 1299.250;   71.750;15592.250; 1.10188
1151.59; 1277.250;   71.750;15618.250; 1.11047
1155.69; 1265.250;   64.750;15618.250; 1.11247
1159.78; 1252.250;   61.750;15619.250; 1.11621
1163.88; 1249.250;   66.750;15654.250; 1.11998
1167.97; 1231.250;   60.750;15657.250; 1.12466
1172.06; 1238.250;   60.750;15668.250; 1.12237
1176.15; 1208.250;   53.750;15670.250; 1.13119
1180.23; 1223.250;   59.750;15679.250; 1.12790
1184.32; 1194.250;   50.750;15690.250; 1.13599
1188.40; 1213.250;   57.750;15712.250; 1.13187
1192.48; 1224.250;   55.750;15725.250; 1.12743
1196.56; 1211.250;   53.750;15754.250; 1.13239
1200.64; 1227.250;   72.750;15783.250; 1.13380
1204.71; 1222.250;   50.750;15806.250; 1.12869
1208.78; 1236.250;   69.750;15849.250; 1.13121
1212.85; 1245.250;   54.750;15854.250; 1.12291
1216.92; 1223.250;   37.750;15840.250; 1.12482
1220.99; 1261.250;   49.750;15897.250; 1.11664
1225.05; 1258.250;   60.750;15920.250; 1.12201
1229.11; 1267.250;   53.750;15924.250; 1.11655
1233.17; 1270.250;   58.750;15926.250; 1.11719
1237.23; 1269.250;   49.750;15943.250; 1.11504
1241.29; 1266.250;   51.750;15960.250; 1.11723
1245.34; 1288.250;   79.750;16029.250; 1.12050
1249.39; 1285.250;   55.750;16081.250; 1.11508
1253.44; 1282.250;   36.750;16122.250; 1.11109
1257.49; 1304.250;   73.750;16225.250; 1.11813
1261.53; 1304.250;   40.750;16273.250; 1.10881
1265.58; 1319.250;   46.750;16338.250; 1.10730
1269.62; 1318.250;   46.750;16412.250; 1.10961
1273.65; 1314.250;   55.750;16472.250; 1.11543
1277.69; 1327.250;   53.750;16552.250; 1.11245
1281.72; 1317.250;   65.750;16612.250; 1.12128
1285.76; 1323.250;   66.750;16662.250; 1.12083
1289.79; 1312.250;   56.750;16697.250; 1.12235
1293.81; 1332.250;   44.750;16713.250; 1.11215
1297.84; 1309.250;   49.750;16765.250; 1.12292
1301.86; 1312.250;   43.750;16807.250; 1.12107
1305.88; 1307.250;   58.750;16824.250; 1.12803
1309.90; 1299.250;   49.750;16842.250; 1.12838
1313.92; 1269.250;   55.750;16828.250; 1.14056
1317.93; 1262.250;   65.750;16838.250; 1.14669
1321.94; 1237.250;   46.750;16825.250; 1.14902
1325.95; 1217.250;   64.750;16797.250; 1.16192
1329.96; 1211.250;   63.750;16802.250; 1.16396
1333.96; 1176.250;   52.750;16773.250; 1.17268
1337.96; 1138.250;   63.750;16776.250; 1.19183
1341.96; 1122.250;   46.750;16748.250; 1.19115
1345.96; 1098.250;   59.750;16622.250; 1.20272
1349.95; 1043.250;   42.750;16410.250; 1.21377
1353.95; 1015.250;   67.750;16154.250; 1.22988
1357.94;  992.250;   50.750;15843.250; 1.22463
1361.92;  944.250;   50.750;15571.250; 1.23981
1365.91;  902.250;   46.750;15308.250; 1.25138
1369.89;  865.250;   50.750;15042.250; 1.26495
1373.87;  795.250;   48.750;14460.250; 1.28568
1377.85;  725.250;   60.750;13607.250; 1.30933
1381.82;  635.250;   48.750;12795.250; 1.33712
1385.80;  564.250;   50.750;12441.250; 1.38255
1389.77;  510.250;   54.750;12376.250; 1.43218
1393.74;  425.250;   63.750;12523.250; 1.53739
1397.70;  380.250;   57.750;12861.250; 1.59880
1401.66;  319.250;   57.750;13177.250; 1.70045
1405.62;  279.250;   34.750;13448.250; 1.73926
1409.58;  252.250;   50.750;13653.250; 1.82934
1413.54;  234.250;   50.750;13787.250; 1.87424
1417.49;  195.250;   27.750;13838.250; 1.91619
1421.44;  199.250;   63.750;13894.250; 2.00890
1425.39;  193.250;   54.750;13879.250; 1.99920
1429.33;  187.250;   64.750;13864.250; 2.05173
1433.27;  160.250;   54.750;13809.250; 2.11519
1437.21;  167.250;   48.750;13776.250; 2.06387
1441.15;  175.250;   52.750;13748.250; 2.04844
1445.09;  160.250;   60.750;13691.250; 2.13669
1449.02;  165.250;   57.750;13611.250; 2.10064
1452.95;  171.250;   52.750;13536.250; 2.05608
1456.87;  135.250;   53.750;13439.250; 2.21548
1460.80;  161.250;   43.750;13345.250; 2.05386
1464.72;  149.250;   59.750;13253.250; 2.16854
1468.64;  156.250;   43.750;13131.250; 2.06570
1472.55;  161.250;   63.750;13051.250; 2.12452
1476.47;  165.250;   43.750;12969.250; 2.02687
1480.38;  176.250;   38.750;12870.250; 1.96997
1484.28;  178.250;   54.750;12750.250; 2.01198
1488.19;  179.250;   50.750;12663.250; 1.99190
1492.09;  168.250;   28.750;12533.250; 1.95249
1495.99;  186.250;   58.750;12434.250; 1.98705
1499.89;  195.250;   46.750;12320.250; 1.91724
1503.78;  202.250;   48.750;12228.250; 1.89952
1507.67;  217.250;   52.750;12113.250; 1.86520
1511.56;  209.250;   33.750;11982.250; 1.83304
1515.44;  230.250;   50.750;11884.250; 1.81905
1519.33;  237.250;   48.750;11757.250; 1.79319
1523.21;  236.250;   35.750;11649.250; 1.76285
1527.08;  254.250;   57.750;11506.250; 1.76539
1530.96;  254.250;   39.750;11368.250; 1.72275
1534.83;  280.250;   52.750;11249.250; 1.69210
1538.70;  274.250;   57.750;11082.250; 1.70690
1542.56;  257.250;   28.750;10958.250; 1.67971
1546.42;  286.250;   39.750;10836.250; 1.64147
1550.28;  288.250;   58.750;10683.250; 1.66553
1554.14;  293.250;   39.750;10510.250; 1.61599
1557.99;  294.250;   41.750;10388.250; 1.61253
1561.84;  302.250;   33.750;10234.250; 1.57968
1565.69;  298.250;   40.750;10095.250; 1.59158
1569.54;  309.250;   24.750; 9939.250; 1.54219
1573.38;  312.250;   40.750; 9804.250; 1.55584
1577.22;  314.250;   31.750; 9649.250; 1.53204
1581.05;  318.250;   49.750; 9522.250; 1.54752
1584.89;  330.250;   45.750; 9369.250; 1.51550
1588.72;  320.250;   41.750; 9215.250; 1.51771
1592.54;  341.250;   35.750; 9061.250; 1.47046
1596.37;  316.250;   22.750; 8908.250; 1.48107
1600.19;  330.250;   43.750; 8774.250; 1.48391
1604.01;  318.250;   33.750; 8610.250; 1.47923
1607.82;  315.250;   31.750; 8473.250; 1.47387
1611.63;  310.250;   22.750; 8316.250; 1.46010
1615.44;  329.250;   26.750; 8167.250; 1.42993
1619.25;  302.250;   34.750; 7998.250; 1.47378
1623.05;  310.250;   13.750; 7822.250; 1.42054
1626.85;  305.250;   26.750; 7668.250; 1.43835
1630.64;  328.250;   42.750; 7511.250; 1.41763
1634.44;  296.250;   26.750; 7307.250; 1.43160
1638.23;  294.250;   18.750; 7114.250; 1.41086
1642.01;  286.250;   39.750; 6938.250; 1.44694
1645.80;  300.250;   42.750; 6743.250; 1.41533
1649.58;  293.250;   38.750; 6531.250; 1.40672
1653.35;  293.250;   44.750; 6309.250; 1.40156
1657.13;  248.250;   36.750; 6064.250; 1.45483
1660.90;  266.250;   34.750; 5808.250; 1.39689
1664.67;  241.250;   28.750; 5491.250; 1.41003
1668.43;  236.250;   24.750; 5119.250; 1.38179
1672.19;  224.250;   35.750; 4656.250; 1.38938
1675.95;  197.250;   31.750; 4113.250; 1.39202
1679.70;  172.250;   46.750; 3563.250; 1.44747
1683.46;  160.250;   23.750; 3047.250; 1.34538
1687.20;  153.250;   39.750; 2617.250; 1.35620
1690.95;  133.250;   36.750; 2243.250; 1.35918
1694.69;  110.250;   56.750; 1964.250; 1.55211
1698.43;  117.250;   22.750; 1699.250; 1.24897
1702.16;  107.250;   44.750; 1533.250; 1.37687
1705.89;  110.250;   30.750; 1372.250; 1.22722
1709.62;  102.250;   25.750; 1277.250; 1.21377
1713.35;  104.250;   17.750; 1187.250; 1.13098
1717.07;  100.250;   42.750; 1123.250; 1.27396
1720.79;   97.250;   41.750; 1064.250; 1.26537
1724.50;   96.250;   44.750; 1019.250; 1.27697
1728.21;   98.250;   29.750;  974.250; 1.13951
1731.92;   93.250;   25.750;  931.250; 1.12758
1735.63;  101.250;   34.750;  925.250; 1.12681
1739.33;   98.250;   23.750;  909.250; 1.07503
1743.02;  101.250;   21.750;  865.250; 1.02572
1746.72;   86.250;   33.750;  872.250; 1.20334
1750.41;  110.250;   37.750;  865.250; 1.05743
1754.10;  108.250;   44.750;  846.250; 1.10113

