
Integration time [ms]:   3.780
Averaging Nr. [scans]: 1
Smoothing Nr. [pixels]: 0
Data measured with spectrometer [name]: 1911294U1
Wave   ;Sample   ;Dark     ;Reference;Absorbance
[nm]   ;[counts] ;[counts] ;[counts] ;[A.U]

 860.61;   97.250;   67.750;  833.250; 1.41412
 864.82;   99.250;   49.750;  998.250; 1.28243
 869.02;  121.250;   59.750; 1169.250; 1.25625
 873.23;  134.250;   54.750; 1288.250; 1.19077
 877.43;  124.250;   53.750; 1415.250; 1.28583
 881.63;  146.250;   54.750; 1540.250; 1.21045
 885.83;  171.250;   49.750; 1684.250; 1.12881
 890.03;  154.250;   28.750; 1796.250; 1.14872
 894.23;  160.250;   40.750; 1929.250; 1.19875
 898.42;  181.250;   37.750; 2071.250; 1.15139
 902.62;  176.250;   56.750; 2213.250; 1.25638
 906.81;  179.250;   35.750; 2337.250; 1.20516
 911.00;  200.250;   53.750; 2523.250; 1.22677
 915.19;  223.250;   45.750; 2712.250; 1.17674
 919.38;  236.250;   47.750; 2963.250; 1.18940
 923.57;  265.250;   53.750; 3292.250; 1.18503
 927.76;  265.250;   40.750; 3728.250; 1.21552
 931.94;  305.250;   39.750; 4163.250; 1.19120
 936.13;  329.250;   53.750; 4579.250; 1.21554
 940.31;  361.250;   50.750; 4873.250; 1.19121
 944.49;  372.250;   63.750; 5167.250; 1.21861
 948.67;  376.250;   49.750; 5411.250; 1.21540
 952.85;  384.250;   50.750; 5679.250; 1.22730
 957.03;  396.250;   47.750; 5965.250; 1.22994
 961.21;  426.250;   58.750; 6236.250; 1.22556
 965.38;  437.250;   44.750; 6471.250; 1.21413
 969.55;  429.250;   37.750; 6719.250; 1.23214
 973.73;  469.250;   56.750; 6971.250; 1.22434
 977.90;  455.250;   42.750; 7222.250; 1.24067
 982.06;  492.250;   44.750; 7469.250; 1.21987
 986.23;  496.250;   51.750; 7739.250; 1.23791
 990.40;  528.250;   61.750; 7985.250; 1.23007
 994.56;  528.250;   65.750; 8243.250; 1.24751
 998.72;  545.250;   58.750; 8450.250; 1.23676
1002.88;  559.250;   57.750; 8670.250; 1.23486
1007.04;  569.250;   52.750; 8879.250; 1.23272
1011.20;  585.250;   49.750; 9068.250; 1.22637
1015.36;  599.250;   45.750; 9257.250; 1.22121
1019.51;  608.250;   60.750; 9402.250; 1.23203
1023.67;  635.250;   69.750; 9574.250; 1.22550
1027.82;  634.250;   61.750; 9729.250; 1.22754
1031.97;  626.250;   55.750; 9851.250; 1.23477
1036.12;  647.250;   49.750;10022.250; 1.22247
1040.27;  655.250;   61.750;10174.250; 1.23144
1044.41;  663.250;   73.750;10320.250; 1.24009
1048.56;  690.250;   53.750;10468.250; 1.21384
1052.70;  676.250;   58.750;10629.250; 1.23346
1056.84;  699.250;   47.750;10798.250; 1.21751
1060.98;  699.250;   67.750;10996.250; 1.23819
1065.11;  717.250;   63.750;11181.250; 1.23076
1069.25;  724.250;   63.750;11391.250; 1.23426
1073.38;  751.250;   56.750;11632.250; 1.22187
1077.52;  775.250;   70.750;11862.250; 1.22369
1081.65;  765.250;   62.750;12105.250; 1.23407
1085.77;  782.250;   60.750;12352.250; 1.23137
1089.90;  795.250;   56.750;12603.250; 1.23017
1094.03;  797.250;   65.750;12857.250; 1.24271
1098.15;  827.250;   68.750;13146.250; 1.23657
1102.27;  822.250;   66.750;13436.250; 1.24788
1106.39;  854.250;   69.750;13733.250; 1.24097
1110.51;  875.250;   69.750;14055.250; 1.23961
1114.63;  876.250;   49.750;14464.250; 1.24156
1118.74;  899.250;   73.750;14874.250; 1.25356
1122.85;  920.250;   70.750;15167.250; 1.24971
1126.96;  906.250;   61.750;15350.250; 1.25777
1131.07;  919.250;   57.750;15457.250; 1.25225
1135.18;  891.250;   63.750;15545.250; 1.27205
1139.29;  875.250;   45.750;15604.250; 1.27315
1143.39;  861.250;   62.750;15613.250; 1.28947
1147.49;  830.250;   71.750;15592.250; 1.31095
1151.59;  815.250;   71.750;15618.250; 1.32035
1155.69;  803.250;   64.750;15618.250; 1.32348
1159.78;  785.250;   61.750;15619.250; 1.33250
1163.88;  786.250;   66.750;15654.250; 1.33575
1167.97;  780.250;   60.750;15657.250; 1.33600
1172.06;  771.250;   60.750;15668.250; 1.34177
1176.15;  775.250;   53.750;15670.250; 1.33535
1180.23;  766.250;   59.750;15679.250; 1.34455
1184.32;  750.250;   50.750;15690.250; 1.34944
1188.40;  759.250;   57.750;15712.250; 1.34861
1192.48;  759.250;   55.750;15725.250; 1.34779
1196.56;  765.250;   53.750;15754.250; 1.34374
1200.64;  766.250;   72.750;15783.250; 1.35514
1204.71;  764.250;   50.750;15806.250; 1.34404
1208.78;  771.250;   69.750;15849.250; 1.35207
1212.85;  777.250;   54.750;15854.250; 1.33981
1216.92;  760.250;   37.750;15840.250; 1.33989
1220.99;  778.250;   49.750;15897.250; 1.33753
1225.05;  781.250;   60.750;15920.250; 1.34266
1229.11;  783.250;   53.750;15924.250; 1.33757
1233.17;  768.250;   58.750;15926.250; 1.34956
1237.23;  783.250;   49.750;15943.250; 1.33582
1241.29;  778.250;   51.750;15960.250; 1.34039
1245.34;  816.250;   79.750;16029.250; 1.33557
1249.39;  789.250;   55.750;16081.250; 1.33941
1253.44;  795.250;   36.750;16122.250; 1.32648
1257.49;  801.250;   73.750;16225.250; 1.34638
1261.53;  800.250;   40.750;16273.250; 1.32986
1265.58;  807.250;   46.750;16338.250; 1.33086
1269.62;  800.250;   46.750;16412.250; 1.33685
1273.65;  803.250;   55.750;16472.250; 1.34167
1277.69;  814.250;   53.750;16552.250; 1.33635
1281.72;  819.250;   65.750;16612.250; 1.34162
1285.76;  809.250;   66.750;16662.250; 1.34929
1289.79;  803.250;   56.750;16697.250; 1.34814
1293.81;  797.250;   44.750;16713.250; 1.34539
1297.84;  780.250;   49.750;16765.250; 1.35950
1301.86;  797.250;   43.750;16807.250; 1.34728
1305.88;  774.250;   58.750;16824.250; 1.36981
1309.90;  775.250;   49.750;16842.250; 1.36448
1313.92;  758.250;   55.750;16828.250; 1.37795
1317.93;  753.250;   65.750;16838.250; 1.38733
1321.94;  732.250;   46.750;16825.250; 1.38875
1325.95;  724.250;   64.750;16797.250; 1.40435
1329.96;  707.250;   63.750;16802.250; 1.41517
1333.96;  686.250;   52.750;16773.250; 1.42150
1337.96;  664.250;   63.750;16776.250; 1.44453
1341.96;  647.250;   46.750;16748.250; 1.44424
1345.96;  635.250;   59.750;16622.250; 1.45908
1349.95;  611.250;   42.750;16410.250; 1.45925
1353.95;  586.250;   67.750;16154.250; 1.49171
1357.94;  563.250;   50.750;15843.250; 1.48876
1361.92;  553.250;   50.750;15571.250; 1.48977
1365.91;  535.250;   46.750;15308.250; 1.49473
1369.89;  497.250;   50.750;15042.250; 1.52602
1373.87;  460.250;   48.750;14460.250; 1.54434
1377.85;  415.250;   60.750;13607.250; 1.58221
1381.82;  364.250;   48.750;12795.250; 1.60639
1385.80;  319.250;   50.750;12441.250; 1.66414
1389.77;  296.250;   54.750;12376.250; 1.70775
1393.74;  265.250;   63.750;12523.250; 1.79123
1397.70;  245.250;   57.750;12861.250; 1.83433
1401.66;  217.250;   57.750;13177.250; 1.91516
1405.62;  201.250;   34.750;13448.250; 1.90613
1409.58;  197.250;   50.750;13653.250; 1.96778
1413.54;  184.250;   50.750;13787.250; 2.01239
1417.49;  144.250;   27.750;13838.250; 2.07388
1421.44;  172.250;   63.750;13894.250; 2.10541
1425.39;  158.250;   54.750;13879.250; 2.12571
1429.33;  170.250;   64.750;13864.250; 2.11661
1433.27;  163.250;   54.750;13809.250; 2.10302
1437.21;  157.250;   48.750;13776.250; 2.10216
1441.15;  151.250;   52.750;13748.250; 2.14314
1445.09;  162.250;   60.750;13691.250; 2.12805
1449.02;  156.250;   57.750;13611.250; 2.13862
1452.95;  147.250;   52.750;13536.250; 2.15437
1456.87;  140.250;   53.750;13439.250; 2.18962
1460.80;  131.250;   43.750;13345.250; 2.18189
1464.72;  134.250;   59.750;13253.250; 2.24820
1468.64;  155.250;   43.750;13131.250; 2.06958
1472.55;  149.250;   63.750;13051.250; 2.18156
1476.47;  137.250;   43.750;12969.250; 2.14064
1480.38;  143.250;   38.750;12870.250; 2.08916
1484.28;  144.250;   54.750;12750.250; 2.15183
1488.19;  135.250;   50.750;12663.250; 2.17394
1492.09;  122.250;   28.750;12533.250; 2.12625
1495.99;  142.250;   58.750;12434.250; 2.17088
1499.89;  159.250;   46.750;12320.250; 2.03782
1503.78;  151.250;   48.750;12228.250; 2.07491
1507.67;  155.250;   52.750;12113.250; 2.07064
1511.56;  136.250;   33.750;11982.250; 2.06659
1515.44;  172.250;   50.750;11884.250; 1.98854
1519.33;  161.250;   48.750;11757.250; 2.01735
1523.21;  149.250;   35.750;11649.250; 2.00997
1527.08;  171.250;   57.750;11506.250; 2.00375
1530.96;  179.250;   39.750;11368.250; 1.90960
1534.83;  175.250;   52.750;11249.250; 1.96095
1538.70;  162.250;   57.750;11082.250; 2.02324
1542.56;  160.250;   28.750;10958.250; 1.91967
1546.42;  177.250;   39.750;10836.250; 1.89498
1550.28;  175.250;   58.750;10683.250; 1.95998
1554.14;  169.250;   39.750;10510.250; 1.90770
1557.99;  172.250;   41.750;10388.250; 1.89918
1561.84;  181.250;   33.750;10234.250; 1.83983
1565.69;  182.250;   40.750;10095.250; 1.85160
1569.54;  159.250;   24.750; 9939.250; 1.86755
1573.38;  176.250;   40.750; 9804.250; 1.85767
1577.22;  187.250;   31.750; 9649.250; 1.79133
1581.05;  176.250;   49.750; 9522.250; 1.87437
1584.89;  190.250;   45.750; 9369.250; 1.80971
1588.72;  191.250;   41.750; 9215.250; 1.78789
1592.54;  175.250;   35.750; 9061.250; 1.81090
1596.37;  185.250;   22.750; 8908.250; 1.73783
1600.19;  193.250;   43.750; 8774.250; 1.76640
1604.01;  172.250;   33.750; 8610.250; 1.79186
1607.82;  179.250;   31.750; 8473.250; 1.75763
1611.63;  169.250;   22.750; 8316.250; 1.75290
1615.44;  196.250;   26.750; 8167.250; 1.68148
1619.25;  172.250;   34.750; 7998.250; 1.76280
1623.05;  163.250;   13.750; 7822.250; 1.71793
1626.85;  173.250;   26.750; 7668.250; 1.71734
1630.64;  196.250;   42.750; 7511.250; 1.68713
1634.44;  167.250;   26.750; 7307.250; 1.71448
1638.23;  155.250;   18.750; 7114.250; 1.71585
1642.01;  167.250;   39.750; 6938.250; 1.73324
1645.80;  184.250;   42.750; 6743.250; 1.67535
1649.58;  173.250;   38.750; 6531.250; 1.68369
1653.35;  169.250;   44.750; 6309.250; 1.70172
1657.13;  147.250;   36.750; 6064.250; 1.73677
1660.90;  151.250;   34.750; 5808.250; 1.69511
1664.67;  141.250;   28.750; 5491.250; 1.68624
1668.43;  156.250;   24.750; 5119.250; 1.58818
1672.19;  142.250;   35.750; 4656.250; 1.63734
1675.95;  121.250;   31.750; 4113.250; 1.65900
1679.70;  101.250;   46.750; 3563.250; 1.80971
1683.46;   92.250;   23.750; 3047.250; 1.64482
1687.20;  101.250;   39.750; 2617.250; 1.62232
1690.95;   96.250;   36.750; 2243.250; 1.56919
1694.69;   98.250;   56.750; 1964.250; 1.66242
1698.43;   78.250;   22.750; 1699.250; 1.48011
1702.16;   81.250;   44.750; 1533.250; 1.61046
1705.89;   76.250;   30.750; 1372.250; 1.46958
1709.62;   71.250;   25.750; 1277.250; 1.43942
1713.35;   86.250;   17.750; 1187.250; 1.23231
1717.07;   82.250;   42.750; 1123.250; 1.43703
1720.79;   80.250;   41.750; 1064.250; 1.42420
1724.50;   77.250;   44.750; 1019.250; 1.47690
1728.21;   85.250;   29.750;  974.250; 1.23091
1731.92;   68.250;   25.750;  931.250; 1.32850
1735.63;   76.250;   34.750;  925.250; 1.33159
1739.33;   81.250;   23.750;  909.250; 1.18752
1743.02;   80.250;   21.750;  865.250; 1.15893
1746.72;   78.250;   33.750;  872.250; 1.27514
1750.41;   89.250;   37.750;  865.250; 1.20596
1754.10;   83.250;   44.750;  846.250; 1.31844

