
Integration time [ms]:   3.780
Averaging Nr. [scans]: 1
Smoothing Nr. [pixels]: 0
Data measured with spectrometer [name]: 1911294U1
Wave   ;Sample   ;Dark     ;Reference;Absorbance
[nm]   ;[counts] ;[counts] ;[counts] ;[A.U]

 860.61;  114.750;   67.750;  833.250; 1.21185
 864.82;  121.750;   49.750;  998.250; 1.11970
 869.02;  142.750;   59.750; 1169.250; 1.12605
 873.23;  122.750;   54.750; 1288.250; 1.25863
 877.43;  138.750;   53.750; 1415.250; 1.20460
 881.63;  138.750;   54.750; 1540.250; 1.24759
 885.83;  167.750;   49.750; 1684.250; 1.14150
 890.03;  144.750;   28.750; 1796.250; 1.18290
 894.23;  166.750;   40.750; 1929.250; 1.17575
 898.42;  182.750;   37.750; 2071.250; 1.14688
 902.62;  186.750;   56.750; 2213.250; 1.21981
 906.81;  202.750;   35.750; 2337.250; 1.13929
 911.00;  209.750;   53.750; 2523.250; 1.19948
 915.19;  220.750;   45.750; 2712.250; 1.18290
 919.38;  254.750;   47.750; 2963.250; 1.14874
 923.57;  270.750;   53.750; 3292.250; 1.17388
 927.76;  278.750;   40.750; 3728.250; 1.19016
 931.94;  311.750;   39.750; 4163.250; 1.18070
 936.13;  343.750;   53.750; 4579.250; 1.19327
 940.31;  354.750;   50.750; 4873.250; 1.20040
 944.49;  388.750;   63.750; 5167.250; 1.19598
 948.67;  398.750;   49.750; 5411.250; 1.18646
 952.85;  408.750;   50.750; 5679.250; 1.19651
 957.03;  426.750;   47.750; 5965.250; 1.19350
 961.21;  436.750;   58.750; 6236.250; 1.21332
 965.38;  441.750;   44.750; 6471.250; 1.20918
 969.55;  454.750;   37.750; 6719.250; 1.20474
 973.73;  473.750;   56.750; 6971.250; 1.21962
 977.90;  484.750;   42.750; 7222.250; 1.21067
 982.06;  503.750;   44.750; 7469.250; 1.20885
 986.23;  513.750;   51.750; 7739.250; 1.22114
 990.40;  540.750;   61.750; 7985.250; 1.21858
 994.56;  567.750;   65.750; 8243.250; 1.21192
 998.72;  577.750;   58.750; 8450.250; 1.20867
1002.88;  578.750;   57.750; 8670.250; 1.21829
1007.04;  607.750;   52.750; 8879.250; 1.20150
1011.20;  605.750;   49.750; 9068.250; 1.21006
1015.36;  614.750;   45.750; 9257.250; 1.20922
1019.51;  631.750;   60.750; 9402.250; 1.21378
1023.67;  652.750;   69.750; 9574.250; 1.21226
1027.82;  656.750;   61.750; 9729.250; 1.21080
1031.97;  661.750;   55.750; 9851.250; 1.20855
1036.12;  674.750;   49.750;10022.250; 1.20292
1040.27;  676.750;   61.750;10174.250; 1.21598
1044.41;  695.750;   73.750;10320.250; 1.21679
1048.56;  699.750;   53.750;10468.250; 1.20741
1052.70;  711.750;   58.750;10629.250; 1.20918
1056.84;  720.750;   47.750;10798.250; 1.20341
1060.98;  729.750;   67.750;10996.250; 1.21770
1065.11;  756.750;   63.750;11181.250; 1.20527
1069.25;  776.750;   63.750;11391.250; 1.20104
1073.38;  772.750;   56.750;11632.250; 1.20863
1077.52;  801.750;   70.750;11862.250; 1.20765
1081.65;  805.750;   62.750;12105.250; 1.20973
1085.77;  805.750;   60.750;12352.250; 1.21745
1089.90;  829.750;   56.750;12603.250; 1.21034
1094.03;  847.750;   65.750;12857.250; 1.21371
1098.15;  861.750;   68.750;13146.250; 1.21725
1102.27;  869.750;   66.750;13436.250; 1.22140
1106.39;  881.750;   69.750;13733.250; 1.22601
1110.51;  905.750;   69.750;14055.250; 1.22347
1114.63;  920.750;   49.750;14464.250; 1.21878
1118.74;  939.750;   73.750;14874.250; 1.23276
1122.85;  951.750;   70.750;15167.250; 1.23390
1126.96;  939.750;   61.750;15350.250; 1.24087
1131.07;  945.750;   57.750;15457.250; 1.23909
1135.18;  935.750;   63.750;15545.250; 1.24930
1139.29;  920.750;   45.750;15604.250; 1.24996
1143.39;  914.750;   62.750;15613.250; 1.26130
1147.49;  874.750;   71.750;15592.250; 1.28619
1151.59;  863.750;   71.750;15618.250; 1.29291
1155.69;  850.750;   64.750;15618.250; 1.29641
1159.78;  841.750;   61.750;15619.250; 1.29985
1163.88;  848.750;   66.750;15654.250; 1.29957
1167.97;  828.750;   60.750;15657.250; 1.30767
1172.06;  824.750;   60.750;15668.250; 1.31024
1176.15;  824.750;   53.750;15670.250; 1.30653
1180.23;  813.750;   59.750;15679.250; 1.31630
1184.32;  791.750;   50.750;15690.250; 1.32440
1188.40;  797.750;   57.750;15712.250; 1.32541
1192.48;  801.750;   55.750;15725.250; 1.32232
1196.56;  807.750;   53.750;15754.250; 1.31854
1200.64;  809.750;   72.750;15783.250; 1.32872
1204.71;  796.750;   50.750;15806.250; 1.32469
1208.78;  831.750;   69.750;15849.250; 1.31614
1212.85;  823.750;   54.750;15854.250; 1.31272
1216.92;  806.750;   37.750;15840.250; 1.31280
1220.99;  819.750;   49.750;15897.250; 1.31347
1225.05;  853.750;   60.750;15920.250; 1.30102
1229.11;  826.750;   53.750;15924.250; 1.31241
1233.17;  834.750;   58.750;15926.250; 1.31065
1237.23;  848.750;   49.750;15943.250; 1.29867
1241.29;  842.750;   51.750;15960.250; 1.30345
1245.34;  853.750;   79.750;16029.250; 1.31401
1249.39;  850.750;   55.750;16081.250; 1.30444
1253.44;  846.750;   36.750;16122.250; 1.29795
1257.49;  855.750;   73.750;16225.250; 1.31501
1261.53;  856.750;   40.750;16273.250; 1.29870
1265.58;  865.750;   46.750;16338.250; 1.29868
1269.62;  860.750;   46.750;16412.250; 1.30330
1273.65;  862.750;   55.750;16472.250; 1.30841
1277.69;  856.750;   53.750;16552.250; 1.31273
1281.72;  873.750;   65.750;16612.250; 1.31129
1285.76;  849.750;   66.750;16662.250; 1.32623
1289.79;  861.750;   56.750;16697.250; 1.31537
1293.81;  840.750;   44.750;16713.250; 1.32098
1297.84;  849.750;   49.750;16765.250; 1.32003
1301.86;  859.750;   43.750;16807.250; 1.31267
1305.88;  847.750;   58.750;16824.250; 1.32734
1309.90;  821.750;   49.750;16842.250; 1.33750
1313.92;  811.750;   55.750;16828.250; 1.34608
1317.93;  813.750;   65.750;16838.250; 1.35070
1321.94;  784.750;   46.750;16825.250; 1.35670
1325.95;  776.750;   64.750;16797.250; 1.37108
1329.96;  757.750;   63.750;16802.250; 1.38236
1333.96;  730.750;   52.750;16773.250; 1.39202
1337.96;  707.750;   63.750;16776.250; 1.41416
1341.96;  689.750;   46.750;16748.250; 1.41454
1345.96;  675.750;   59.750;16622.250; 1.42955
1349.95;  643.750;   42.750;16410.250; 1.43511
1353.95;  630.750;   67.750;16154.250; 1.45595
1357.94;  602.750;   50.750;15843.250; 1.45651
1361.92;  579.750;   50.750;15571.250; 1.46745
1365.91;  548.750;   46.750;15308.250; 1.48289
1369.89;  516.750;   50.750;15042.250; 1.50746
1373.87;  470.750;   48.750;14460.250; 1.53340
1377.85;  436.750;   60.750;13607.250; 1.55664
1381.82;  368.750;   48.750;12795.250; 1.60024
1385.80;  337.750;   50.750;12441.250; 1.63521
1389.77;  287.750;   54.750;12376.250; 1.72331
1393.74;  262.750;   63.750;12523.250; 1.79665
1397.70;  229.750;   57.750;12861.250; 1.87180
1401.66;  193.750;   57.750;13177.250; 1.98438
1405.62;  159.750;   34.750;13448.250; 2.03063
1409.58;  156.750;   50.750;13653.250; 2.10831
1413.54;  146.750;   50.750;13787.250; 2.15560
1417.49;  125.750;   27.750;13838.250; 2.14898
1421.44;  119.750;   63.750;13894.250; 2.39265
1425.39;  118.750;   54.750;13879.250; 2.33447
1429.33;  133.750;   64.750;13864.250; 2.30101
1433.27;  124.750;   54.750;13809.250; 2.29335
1437.21;  105.750;   48.750;13776.250; 2.38172
1441.15;  114.750;   52.750;13748.250; 2.34419
1445.09;  120.750;   60.750;13691.250; 2.35636
1449.02;  109.750;   57.750;13611.250; 2.41605
1452.95;  107.750;   52.750;13536.250; 2.38944
1456.87;  103.750;   53.750;13439.250; 2.42766
1460.80;   92.750;   43.750;13345.250; 2.43370
1464.72;  105.750;   59.750;13253.250; 2.45760
1468.64;  105.750;   43.750;13131.250; 2.32447
1472.55;  126.750;   63.750;13051.250; 2.31419
1476.47;  102.750;   43.750;12969.250; 2.34060
1480.38;  103.750;   38.750;12870.250; 2.29536
1484.28;  117.750;   54.750;12750.250; 2.30431
1488.19;  115.750;   50.750;12663.250; 2.28789
1492.09;  100.750;   28.750;12533.250; 2.23973
1495.99;  128.750;   58.750;12434.250; 2.24746
1499.89;  118.750;   46.750;12320.250; 2.23164
1503.78;  139.750;   48.750;12228.250; 2.12659
1507.67;  150.750;   52.750;12113.250; 2.09014
1511.56;  125.750;   33.750;11982.250; 2.11353
1515.44;  137.750;   50.750;11884.250; 2.13359
1519.33;  154.750;   48.750;11757.250; 2.04320
1523.21;  138.750;   35.750;11649.250; 2.05213
1527.08;  166.750;   57.750;11506.250; 2.02132
1530.96;  161.750;   39.750;11368.250; 1.96781
1534.83;  181.750;   52.750;11249.250; 1.93849
1538.70;  160.750;   57.750;11082.250; 2.02952
1542.56;  170.750;   28.750;10958.250; 1.88631
1546.42;  160.750;   39.750;10836.250; 1.95050
1550.28;  183.750;   58.750;10683.250; 1.92940
1554.14;  175.750;   39.750;10510.250; 1.88643
1557.99;  183.750;   41.750;10388.250; 1.86251
1561.84;  178.750;   33.750;10234.250; 1.84725
1565.69;  187.750;   40.750;10095.250; 1.83504
1569.54;  178.750;   24.750; 9939.250; 1.80875
1573.38;  192.750;   40.750; 9804.250; 1.80776
1577.22;  178.750;   31.750; 9649.250; 1.81574
1581.05;  196.750;   49.750; 9522.250; 1.80915
1584.89;  208.750;   45.750; 9369.250; 1.75739
1588.72;  198.750;   41.750; 9215.250; 1.76664
1592.54;  199.750;   35.750; 9061.250; 1.74063
1596.37;  178.750;   22.750; 8908.250; 1.75556
1600.19;  207.750;   43.750; 8774.250; 1.72620
1604.01;  197.750;   33.750; 8610.250; 1.71847
1607.82;  202.750;   31.750; 8473.250; 1.69342
1611.63;  186.750;   22.750; 8316.250; 1.70389
1615.44;  194.750;   26.750; 8167.250; 1.68534
1619.25;  198.750;   34.750; 7998.250; 1.68626
1623.05;  183.750;   13.750; 7822.250; 1.66212
1626.85;  202.750;   26.750; 7668.250; 1.63767
1630.64;  196.750;   42.750; 7511.250; 1.68571
1634.44;  198.750;   26.750; 7307.250; 1.62663
1638.23;  176.750;   18.750; 7114.250; 1.65233
1642.01;  190.750;   39.750; 6938.250; 1.65978
1645.80;  180.750;   42.750; 6743.250; 1.68623
1649.58;  185.750;   38.750; 6531.250; 1.64509
1653.35;  192.750;   44.750; 6309.250; 1.62662
1657.13;  167.750;   36.750; 6064.250; 1.66287
1660.90;  152.750;   34.750; 5808.250; 1.68956
1664.67;  163.750;   28.750; 5491.250; 1.60706
1668.43;  141.750;   24.750; 5119.250; 1.63892
1672.19;  153.750;   35.750; 4656.250; 1.59281
1675.95;  138.750;   31.750; 4113.250; 1.58144
1679.70;  127.750;   46.750; 3563.250; 1.63763
1683.46;  100.750;   23.750; 3047.250; 1.59402
1687.20;  103.750;   39.750; 2617.250; 1.60502
1690.95;   89.750;   36.750; 2243.250; 1.61943
1694.69;  112.750;   56.750; 1964.250; 1.53228
1698.43;  102.750;   22.750; 1699.250; 1.32131
1702.16;   89.750;   44.750; 1533.250; 1.51954
1705.89;   80.750;   30.750; 1372.250; 1.42862
1709.62;   77.750;   25.750; 1277.250; 1.38143
1713.35;   79.750;   17.750; 1187.250; 1.27561
1717.07;   76.750;   42.750; 1123.250; 1.50215
1720.79;   79.750;   41.750; 1064.250; 1.42988
1724.50;   87.750;   44.750; 1019.250; 1.35531
1728.21;   79.750;   29.750;  974.250; 1.27623
1731.92;   88.750;   25.750;  931.250; 1.15755
1735.63;   63.750;   34.750;  925.250; 1.48724
1739.33;   82.750;   23.750;  909.250; 1.17634
1743.02;   80.750;   21.750;  865.250; 1.15523
1746.72;   78.750;   33.750;  872.250; 1.27029
1750.41;   91.750;   37.750;  865.250; 1.18537
1754.10;   84.750;   44.750;  846.250; 1.30184

