
Integration time [ms]:   3.780
Averaging Nr. [scans]: 1
Smoothing Nr. [pixels]: 0
Data measured with spectrometer [name]: 1911294U1
Wave   ;Sample   ;Dark     ;Reference;Absorbance
[nm]   ;[counts] ;[counts] ;[counts] ;[A.U]

 860.61;   62.250;   67.750;  833.250; 5.00000
 864.82;   53.250;   49.750;  998.250; 2.43297
 869.02;   62.250;   59.750; 1169.250; 2.64719
 873.23;   65.250;   54.750; 1288.250; 2.06995
 877.43;   36.250;   53.750; 1415.250; 5.00000
 881.63;   62.250;   54.750; 1540.250; 2.29681
 885.83;   54.250;   49.750; 1684.250; 2.56017
 890.03;   50.250;   28.750; 1796.250; 1.91492
 894.23;   62.250;   40.750; 1929.250; 1.94368
 898.42;   43.250;   37.750; 2071.250; 2.56788
 902.62;   52.250;   56.750; 2213.250; 5.00000
 906.81;   42.250;   35.750; 2337.250; 2.54910
 911.00;   54.250;   53.750; 2523.250; 3.69364
 915.19;   46.250;   45.750; 2712.250; 3.72697
 919.38;   65.250;   47.750; 2963.250; 2.22167
 923.57;   59.250;   53.750; 3292.250; 2.76998
 927.76;   44.250;   40.750; 3728.250; 3.02266
 931.94;   54.250;   39.750; 4163.250; 2.45390
 936.13;   48.250;   53.750; 4579.250; 5.00000
 940.31;   44.250;   50.750; 4873.250; 5.00000
 944.49;   63.250;   63.750; 5167.250; 5.00000
 948.67;   71.250;   49.750; 5411.250; 2.39685
 952.85;   54.250;   50.750; 5679.250; 3.20632
 957.03;   59.250;   47.750; 5965.250; 2.71144
 961.21;   57.250;   58.750; 6236.250; 5.00000
 965.38;   69.250;   44.750; 6471.250; 2.41881
 969.55;   47.250;   37.750; 6719.250; 2.84715
 973.73;   78.250;   56.750; 6971.250; 2.50732
 977.90;   45.250;   42.750; 7222.250; 3.45815
 982.06;   60.250;   44.750; 7469.250; 2.68034
 986.23;   50.250;   51.750; 7739.250; 5.00000
 990.40;   87.250;   61.750; 7985.250; 2.49238
 994.56;   68.250;   65.750; 8243.250; 3.51468
 998.72;   66.250;   58.750; 8450.250; 3.04878
1002.88;   63.250;   57.750; 8670.250; 3.19477
1007.04;   72.250;   52.750; 8879.250; 2.65575
1011.20;   61.250;   49.750; 9068.250; 2.89444
1015.36;   63.250;   45.750; 9257.250; 2.72129
1019.51;   60.250;   60.750; 9402.250; 5.00000
1023.67;   65.250;   69.750; 9574.250; 5.00000
1027.82;   73.250;   61.750; 9729.250; 2.92462
1031.97;   74.250;   55.750; 9851.250; 2.72385
1036.12;   71.250;   49.750;10022.250; 2.66637
1040.27;   61.250;   61.750;10174.250; 5.00000
1044.41;   76.250;   73.750;10320.250; 3.61264
1048.56;   70.250;   53.750;10468.250; 2.80015
1052.70;   72.250;   58.750;10629.250; 2.89376
1056.84;   69.250;   47.750;10798.250; 2.69899
1060.98;   70.250;   67.750;10996.250; 3.64062
1065.11;   73.250;   63.750;11181.250; 3.06828
1069.25;   70.250;   63.750;11391.250; 3.24122
1073.38;   53.250;   56.750;11632.250; 5.00000
1077.52;   82.250;   70.750;11862.250; 3.01087
1081.65;   60.250;   62.750;12105.250; 5.00000
1085.77;   66.250;   60.750;12352.250; 3.34924
1089.90;   70.250;   56.750;12603.250; 2.96819
1094.03;   62.250;   65.750;12857.250; 5.00000
1098.15;   66.250;   68.750;13146.250; 5.00000
1102.27;   61.250;   66.750;13436.250; 5.00000
1106.39;   78.250;   69.750;13733.250; 3.20614
1110.51;   82.250;   69.750;14055.250; 3.04877
1114.63;   62.250;   49.750;14464.250; 3.06189
1118.74;   72.250;   73.750;14874.250; 5.00000
1122.85;   60.250;   70.750;15167.250; 5.00000
1126.96;   60.250;   61.750;15350.250; 5.00000
1131.07;   86.250;   57.750;15457.250; 2.73266
1135.18;   60.250;   63.750;15545.250; 5.00000
1139.29;   51.250;   45.750;15604.250; 3.45161
1143.39;   67.250;   62.750;15613.250; 3.53853
1147.49;   59.250;   71.750;15592.250; 5.00000
1151.59;   62.250;   71.750;15618.250; 5.00000
1155.69;   67.250;   64.750;15618.250; 3.79389
1159.78;   57.250;   61.750;15619.250; 5.00000
1163.88;   65.250;   66.750;15654.250; 5.00000
1167.97;   65.250;   60.750;15657.250; 3.53981
1172.06;   60.250;   60.750;15668.250; 5.00000
1176.15;   69.250;   53.750;15670.250; 3.00325
1180.23;   66.250;   59.750;15679.250; 3.38075
1184.32;   56.250;   50.750;15690.250; 3.45386
1188.40;   66.250;   57.750;15712.250; 3.26522
1192.48;   45.250;   55.750;15725.250; 5.00000
1196.56;   66.250;   53.750;15754.250; 3.09900
1200.64;   70.250;   72.750;15783.250; 5.00000
1204.71;   57.250;   50.750;15806.250; 3.38452
1208.78;   68.250;   69.750;15849.250; 5.00000
1212.85;   68.250;   54.750;15854.250; 3.06831
1216.92;   40.250;   37.750;15840.250; 3.80079
1220.99;   56.250;   49.750;15897.250; 3.38705
1225.05;   54.250;   60.750;15920.250; 5.00000
1229.11;   65.250;   53.750;15924.250; 3.13989
1233.17;   59.250;   58.750;15926.250; 4.50154
1237.23;   57.250;   49.750;15943.250; 3.32616
1241.29;   51.250;   51.750;15960.250; 5.00000
1245.34;   62.250;   79.750;16029.250; 5.00000
1249.39;   84.250;   55.750;16081.250; 2.74997
1253.44;   49.250;   36.750;16122.250; 3.10952
1257.49;   64.250;   73.750;16225.250; 5.00000
1261.53;   63.250;   40.750;16273.250; 2.85820
1265.58;   58.250;   46.750;16338.250; 3.15126
1269.62;   69.250;   46.750;16412.250; 2.86175
1273.65;   54.250;   55.750;16472.250; 5.00000
1277.69;   77.250;   53.750;16552.250; 2.84638
1281.72;   65.250;   65.750;16612.250; 5.00000
1285.76;   68.250;   66.750;16662.250; 4.04390
1289.79;   74.250;   56.750;16697.250; 2.97813
1293.81;   54.250;   44.750;16713.250; 3.24417
1297.84;   56.250;   49.750;16765.250; 3.41021
1301.86;   72.250;   43.750;16807.250; 2.76952
1305.88;   63.250;   58.750;16824.250; 3.57120
1309.90;   66.250;   49.750;16842.250; 3.00763
1313.92;   60.250;   55.750;16828.250; 3.57139
1317.93;   67.250;   65.750;16838.250; 4.04851
1321.94;   61.250;   46.750;16825.250; 3.06339
1325.95;   45.250;   64.750;16797.250; 5.00000
1329.96;   68.250;   63.750;16802.250; 3.57050
1333.96;   59.250;   52.750;16773.250; 3.41034
1337.96;   47.250;   63.750;16776.250; 5.00000
1341.96;   56.250;   46.750;16748.250; 3.24503
1345.96;   60.250;   59.750;16622.250; 4.52016
1349.95;   45.250;   42.750;16410.250; 3.81604
1353.95;   61.250;   67.750;16154.250; 5.00000
1357.94;   71.250;   50.750;15843.250; 2.88670
1361.92;   55.250;   50.750;15571.250; 3.53769
1365.91;   53.250;   46.750;15308.250; 3.37068
1369.89;   50.250;   50.750;15042.250; 5.00000
1373.87;   60.250;   48.750;14460.250; 3.09801
1377.85;   57.250;   60.750;13607.250; 5.00000
1381.82;   49.250;   48.750;12795.250; 4.40642
1385.80;   58.250;   50.750;12441.250; 3.21803
1389.77;   56.250;   54.750;12376.250; 3.91457
1393.74;   59.250;   63.750;12523.250; 5.00000
1397.70;   64.250;   57.750;12861.250; 3.29442
1401.66;   34.250;   57.750;13177.250; 5.00000
1405.62;   58.250;   34.750;13448.250; 2.75647
1409.58;   69.250;   50.750;13653.250; 2.86645
1413.54;   39.250;   50.750;13787.250; 5.00000
1417.49;   33.250;   27.750;13838.250; 3.39985
1421.44;   56.250;   63.750;13894.250; 5.00000
1425.39;   52.250;   54.750;13879.250; 5.00000
1429.33;   62.250;   64.750;13864.250; 5.00000
1433.27;   37.250;   54.750;13809.250; 5.00000
1437.21;   48.250;   48.750;13776.250; 5.00000
1441.15;   59.250;   52.750;13748.250; 3.32366
1445.09;   57.250;   60.750;13691.250; 5.00000
1449.02;   60.250;   57.750;13611.250; 3.73411
1452.95;   66.250;   52.750;13536.250; 2.99947
1456.87;   39.250;   53.750;13439.250; 5.00000
1460.80;   41.250;   43.750;13345.250; 5.00000
1464.72;   62.250;   59.750;13253.250; 3.72242
1468.64;   49.250;   43.750;13131.250; 3.37649
1472.55;   56.250;   63.750;13051.250; 5.00000
1476.47;   47.250;   43.750;12969.250; 3.56738
1480.38;   56.250;   38.750;12870.250; 2.86524
1484.28;   56.250;   54.750;12750.250; 3.92756
1488.19;   52.250;   50.750;12663.250; 3.92471
1492.09;   39.250;   28.750;12533.250; 3.07588
1495.99;   43.250;   58.750;12434.250; 5.00000
1499.89;   55.250;   46.750;12320.250; 3.15955
1503.78;   53.250;   48.750;12228.250; 3.43242
1507.67;   67.250;   52.750;12113.250; 2.92000
1511.56;   37.250;   33.750;11982.250; 3.53325
1515.44;   41.250;   50.750;11884.250; 5.00000
1519.33;   51.250;   48.750;11757.250; 3.67056
1523.21;   62.250;   35.750;11649.250; 2.64172
1527.08;   59.250;   57.750;11506.250; 3.88266
1530.96;   50.250;   39.750;11368.250; 3.03298
1534.83;   50.250;   52.750;11249.250; 5.00000
1538.70;   71.250;   57.750;11082.250; 2.91203
1542.56;   36.250;   28.750;10958.250; 3.16354
1546.42;   43.250;   39.750;10836.250; 3.48921
1550.28;   66.250;   58.750;10683.250; 3.15125
1554.14;   56.250;   39.750;10510.250; 2.80248
1557.99;   55.250;   41.750;10388.250; 2.88446
1561.84;   51.250;   33.750;10234.250; 2.76558
1565.69;   47.250;   40.750;10095.250; 3.18945
1569.54;   38.250;   24.750; 9939.250; 2.86594
1573.38;   53.250;   40.750; 9804.250; 2.89270
1577.22;   53.250;   31.750; 9649.250; 2.65062
1581.05;   53.250;   49.750; 9522.250; 3.43240
1584.89;   41.250;   45.750; 9369.250; 5.00000
1588.72;   44.250;   41.750; 9215.250; 3.56460
1592.54;   46.250;   35.750; 9061.250; 2.93428
1596.37;   48.250;   22.750; 8908.250; 2.54214
1600.19;   74.250;   43.750; 8774.250; 2.45674
1604.01;   34.250;   33.750; 8610.250; 4.23434
1607.82;   49.250;   31.750; 8473.250; 2.68338
1611.63;   32.250;   22.750; 8316.250; 2.94101
1615.44;   59.250;   26.750; 8167.250; 2.39877
1619.25;   26.250;   34.750; 7998.250; 5.00000
1623.05;   26.250;   13.750; 7822.250; 2.79566
1626.85;   44.250;   26.750; 7668.250; 2.64014
1630.64;   47.250;   42.750; 7511.250; 3.22002
1634.44;   39.250;   26.750; 7307.250; 2.76525
1638.23;   26.250;   18.750; 7114.250; 2.97592
1642.01;   42.250;   39.750; 6938.250; 3.44081
1645.80;   47.250;   42.750; 6743.250; 3.17289
1649.58;   41.250;   38.750; 6531.250; 3.41447
1653.35;   27.250;   44.750; 6309.250; 5.00000
1657.13;   24.250;   36.750; 6064.250; 5.00000
1660.90;   36.250;   34.750; 5808.250; 3.58535
1664.67;   33.250;   28.750; 5491.250; 3.08418
1668.43;   38.250;   24.750; 5119.250; 2.57677
1672.19;   39.250;   35.750; 4656.250; 3.12062
1675.95;   33.250;   31.750; 4113.250; 3.43473
1679.70;   43.250;   46.750; 3563.250; 5.00000
1683.46;   28.250;   23.750; 3047.250; 2.82730
1687.20;   46.250;   39.750; 2617.250; 2.59829
1690.95;   39.250;   36.750; 2243.250; 2.94576
1694.69;   44.250;   56.750; 1964.250; 5.00000
1698.43;   27.250;   22.750; 1699.250; 2.57119
1702.16;   37.250;   44.750; 1533.250; 5.00000
1705.89;   36.250;   30.750; 1372.250; 2.38723
1709.62;   21.250;   25.750; 1277.250; 5.00000
1713.35;   31.250;   17.750; 1187.250; 1.93767
1717.07;   19.250;   42.750; 1123.250; 5.00000
1720.79;   36.250;   41.750; 1064.250; 5.00000
1724.50;   35.250;   44.750; 1019.250; 5.00000
1728.21;   26.250;   29.750;  974.250; 5.00000
1731.92;   17.250;   25.750;  931.250; 5.00000
1735.63;   23.250;   34.750;  925.250; 5.00000
1739.33;   29.250;   23.750;  909.250; 2.20683
1743.02;   31.250;   21.750;  865.250; 1.94836
1746.72;   20.250;   33.750;  872.250; 5.00000
1750.41;   28.250;   37.750;  865.250; 5.00000
1754.10;   41.250;   44.750;  846.250; 5.00000

