
Integration time [ms]:   3.780
Averaging Nr. [scans]: 1
Smoothing Nr. [pixels]: 0
Data measured with spectrometer [name]: 1911294U1
Wave   ;Sample   ;Dark     ;Reference;Absorbance
[nm]   ;[counts] ;[counts] ;[counts] ;[A.U]

 860.61;  152.250;   67.750;  833.250; 0.95709
 864.82;  169.250;   49.750;  998.250; 0.89967
 869.02;  194.250;   59.750; 1169.250; 0.91641
 873.23;  214.250;   54.750; 1288.250; 0.88838
 877.43;  188.250;   53.750; 1415.250; 1.00530
 881.63;  233.250;   54.750; 1540.250; 0.92023
 885.83;  252.250;   49.750; 1684.250; 0.90696
 890.03;  256.250;   28.750; 1796.250; 0.89038
 894.23;  276.250;   40.750; 1929.250; 0.90413
 898.42;  293.250;   37.750; 2071.250; 0.90085
 902.62;  304.250;   56.750; 2213.250; 0.94017
 906.81;  319.250;   35.750; 2337.250; 0.90946
 911.00;  327.250;   53.750; 2523.250; 0.95565
 915.19;  363.250;   45.750; 2712.250; 0.92420
 919.38;  414.250;   47.750; 2963.250; 0.90064
 923.57;  435.250;   53.750; 3292.250; 0.92885
 927.76;  477.250;   40.750; 3728.250; 0.92675
 931.94;  539.250;   39.750; 4163.250; 0.91673
 936.13;  571.250;   53.750; 4579.250; 0.94176
 940.31;  600.250;   50.750; 4873.250; 0.94330
 944.49;  641.250;   63.750; 5167.250; 0.94632
 948.67;  676.250;   49.750; 5411.250; 0.93237
 952.85;  675.250;   50.750; 5679.250; 0.95486
 957.03;  721.250;   47.750; 5965.250; 0.94380
 961.21;  749.250;   58.750; 6236.250; 0.95165
 965.38;  780.250;   44.750; 6471.250; 0.94139
 969.55;  783.250;   37.750; 6719.250; 0.95243
 973.73;  829.250;   56.750; 6971.250; 0.95186
 977.90;  840.250;   42.750; 7222.250; 0.95436
 982.06;  858.250;   44.750; 7469.250; 0.96031
 986.23;  891.250;   51.750; 7739.250; 0.96176
 990.40;  939.250;   61.750; 7985.250; 0.95567
 994.56;  958.250;   65.750; 8243.250; 0.96201
 998.72;  977.250;   58.750; 8450.250; 0.96076
1002.88; 1000.250;   57.750; 8670.250; 0.96085
1007.04; 1041.250;   52.750; 8879.250; 0.95081
1011.20; 1047.250;   49.750; 9068.250; 0.95622
1015.36; 1070.250;   45.750; 9257.250; 0.95382
1019.51; 1088.250;   60.750; 9402.250; 0.95863
1023.67; 1115.250;   69.750; 9574.250; 0.95861
1027.82; 1126.250;   61.750; 9729.250; 0.95817
1031.97; 1139.250;   55.750; 9851.250; 0.95620
1036.12; 1156.250;   49.750;10022.250; 0.95485
1040.27; 1161.250;   61.750;10174.250; 0.96366
1044.41; 1189.250;   73.750;10320.250; 0.96311
1048.56; 1210.250;   53.750;10468.250; 0.95449
1052.70; 1223.250;   58.750;10629.250; 0.95796
1056.84; 1233.250;   47.750;10798.250; 0.95753
1060.98; 1244.250;   67.750;10996.250; 0.96797
1065.11; 1282.250;   63.750;11181.250; 0.96018
1069.25; 1306.250;   63.750;11391.250; 0.95984
1073.38; 1339.250;   56.750;11632.250; 0.95548
1077.52; 1368.250;   70.750;11862.250; 0.95846
1081.65; 1369.250;   62.750;12105.250; 0.96461
1085.77; 1386.250;   60.750;12352.250; 0.96723
1089.90; 1428.250;   56.750;12603.250; 0.96133
1094.03; 1453.250;   65.750;12857.250; 0.96469
1098.15; 1477.250;   68.750;13146.250; 0.96777
1102.27; 1500.250;   66.750;13436.250; 0.96972
1106.39; 1540.250;   69.750;13733.250; 0.96810
1110.51; 1571.250;   69.750;14055.250; 0.96915
1114.63; 1614.250;   49.750;14464.250; 0.96442
1118.74; 1642.250;   73.750;14874.250; 0.97479
1122.85; 1681.250;   70.750;15167.250; 0.97192
1126.96; 1665.250;   61.750;15350.250; 0.97930
1131.07; 1689.250;   57.750;15457.250; 0.97492
1135.18; 1688.250;   63.750;15545.250; 0.97909
1139.29; 1660.250;   45.750;15604.250; 0.98393
1143.39; 1624.250;   62.750;15613.250; 0.99820
1147.49; 1626.250;   71.750;15592.250; 0.99931
1151.59; 1596.250;   71.750;15618.250; 1.00851
1155.69; 1595.250;   64.750;15618.250; 1.00699
1159.78; 1585.250;   61.750;15619.250; 1.00910
1163.88; 1589.250;   66.750;15654.250; 1.01022
1167.97; 1556.250;   60.750;15657.250; 1.01824
1172.06; 1549.250;   60.750;15668.250; 1.02058
1176.15; 1551.250;   53.750;15670.250; 1.01822
1180.23; 1562.250;   59.750;15679.250; 1.01685
1184.32; 1526.250;   50.750;15690.250; 1.02528
1188.40; 1549.250;   57.750;15712.250; 1.02102
1192.48; 1550.250;   55.750;15725.250; 1.02056
1196.56; 1563.250;   53.750;15754.250; 1.01708
1200.64; 1564.250;   72.750;15783.250; 1.02257
1204.71; 1552.250;   50.750;15806.250; 1.02091
1208.78; 1572.250;   69.750;15849.250; 1.02128
1212.85; 1560.250;   54.750;15854.250; 1.02096
1216.92; 1553.250;   37.750;15840.250; 1.01817
1220.99; 1573.250;   49.750;15897.250; 1.01712
1225.05; 1587.250;   60.750;15920.250; 1.01659
1229.11; 1583.250;   53.750;15924.250; 1.01604
1233.17; 1579.250;   58.750;15926.250; 1.01852
1237.23; 1604.250;   49.750;15943.250; 1.00963
1241.29; 1602.250;   51.750;15960.250; 1.01116
1245.34; 1625.250;   79.750;16029.250; 1.01368
1249.39; 1629.250;   55.750;16081.250; 1.00794
1253.44; 1615.250;   36.750;16122.250; 1.00819
1257.49; 1633.250;   73.750;16225.250; 1.01523
1261.53; 1638.250;   40.750;16273.250; 1.00694
1265.58; 1640.250;   46.750;16338.250; 1.00961
1269.62; 1664.250;   46.750;16412.250; 1.00508
1273.65; 1653.250;   55.750;16472.250; 1.01184
1277.69; 1672.250;   53.750;16552.250; 1.00833
1281.72; 1682.250;   65.750;16612.250; 1.01013
1285.76; 1675.250;   66.750;16662.250; 1.01357
1289.79; 1675.250;   56.750;16697.250; 1.01205
1293.81; 1676.250;   44.750;16713.250; 1.00931
1297.84; 1661.250;   49.750;16765.250; 1.01589
1301.86; 1666.250;   43.750;16807.250; 1.01418
1305.88; 1647.250;   58.750;16824.250; 1.02343
1309.90; 1655.250;   49.750;16842.250; 1.01951
1313.92; 1633.250;   55.750;16828.250; 1.02663
1317.93; 1616.250;   65.750;16838.250; 1.03413
1321.94; 1604.250;   46.750;16825.250; 1.03233
1325.95; 1585.250;   64.750;16797.250; 1.04157
1329.96; 1559.250;   63.750;16802.250; 1.04893
1333.96; 1532.250;   52.750;16773.250; 1.05313
1337.96; 1495.250;   63.750;16776.250; 1.06725
1341.96; 1483.250;   46.750;16748.250; 1.06545
1345.96; 1442.250;   59.750;16622.250; 1.07846
1349.95; 1401.250;   42.750;16410.250; 1.08092
1353.95; 1377.250;   67.750;16154.250; 1.08936
1357.94; 1335.250;   50.750;15843.250; 1.08972
1361.92; 1297.250;   50.750;15571.250; 1.09521
1365.91; 1250.250;   46.750;15308.250; 1.10315
1369.89; 1188.250;   50.750;15042.250; 1.11989
1373.87; 1120.250;   48.750;14460.250; 1.12872
1377.85; 1017.250;   60.750;13607.250; 1.15114
1381.82;  892.250;   48.750;12795.250; 1.17931
1385.80;  808.250;   50.750;12441.250; 1.21371
1389.77;  727.250;   54.750;12376.250; 1.26297
1393.74;  637.250;   63.750;12523.250; 1.33697
1397.70;  572.250;   57.750;12861.250; 1.39594
1401.66;  513.250;   57.750;13177.250; 1.45943
1405.62;  437.250;   34.750;13448.250; 1.52278
1409.58;  401.250;   50.750;13653.250; 1.58893
1413.54;  358.250;   50.750;13787.250; 1.65003
1417.49;  313.250;   27.750;13838.250; 1.68460
1421.44;  314.250;   63.750;13894.250; 1.74203
1425.39;  284.250;   54.750;13879.250; 1.77987
1429.33;  282.250;   64.750;13864.250; 1.80240
1433.27;  264.250;   54.750;13809.250; 1.81726
1437.21;  268.250;   48.750;13776.250; 1.79616
1441.15;  272.250;   52.750;13748.250; 1.79514
1445.09;  259.250;   60.750;13691.250; 1.83675
1449.02;  246.250;   57.750;13611.250; 1.85674
1452.95;  261.250;   52.750;13536.250; 1.81070
1456.87;  249.250;   53.750;13439.250; 1.83549
1460.80;  247.250;   43.750;13345.250; 1.81534
1464.72;  257.250;   59.750;13253.250; 1.82479
1468.64;  258.250;   43.750;13131.250; 1.78543
1472.55;  270.250;   63.750;13051.250; 1.79861
1476.47;  288.250;   43.750;12969.250; 1.72317
1480.38;  295.250;   38.750;12870.250; 1.69919
1484.28;  306.250;   54.750;12750.250; 1.70311
1488.19;  316.250;   50.750;12663.250; 1.67674
1492.09;  310.250;   28.750;12533.250; 1.64759
1495.99;  331.250;   58.750;12434.250; 1.65720
1499.89;  353.250;   46.750;12320.250; 1.60254
1503.78;  370.250;   48.750;12228.250; 1.57845
1507.67;  397.250;   52.750;12113.250; 1.54418
1511.56;  376.250;   33.750;11982.250; 1.54265
1515.44;  405.250;   50.750;11884.250; 1.52350
1519.33;  432.250;   48.750;11757.250; 1.48474
1523.21;  442.250;   35.750;11649.250; 1.45590
1527.08;  456.250;   57.750;11506.250; 1.45832
1530.96;  461.250;   39.750;11368.250; 1.42937
1534.83;  484.250;   52.750;11249.250; 1.41410
1538.70;  475.250;   57.750;11082.250; 1.42170
1542.56;  492.250;   28.750;10958.250; 1.37255
1546.42;  503.250;   39.750;10836.250; 1.36723
1550.28;  530.250;   58.750;10683.250; 1.35283
1554.14;  517.250;   39.750;10510.250; 1.34099
1557.99;  519.250;   41.750;10388.250; 1.33582
1561.84;  531.250;   33.750;10234.250; 1.31183
1565.69;  535.250;   40.750;10095.250; 1.30819
1569.54;  546.250;   24.750; 9939.250; 1.27902
1573.38;  534.250;   40.750; 9804.250; 1.29632
1577.22;  535.250;   31.750; 9649.250; 1.28106
1581.05;  555.250;   49.750; 9522.250; 1.27274
1584.89;  559.250;   45.750; 9369.250; 1.25904
1588.72;  546.250;   41.750; 9215.250; 1.25967
1592.54;  544.250;   35.750; 9061.250; 1.24918
1596.37;  539.250;   22.750; 8908.250; 1.23561
1600.19;  565.250;   43.750; 8774.250; 1.22378
1604.01;  543.250;   33.750; 8610.250; 1.22617
1607.82;  556.250;   31.750; 8473.250; 1.20667
1611.63;  523.250;   22.750; 8316.250; 1.21933
1615.44;  547.250;   26.750; 8167.250; 1.19423
1619.25;  520.250;   34.750; 7998.250; 1.21491
1623.05;  525.250;   13.750; 7822.250; 1.18372
1626.85;  515.250;   26.750; 7668.250; 1.19431
1630.64;  525.250;   42.750; 7511.250; 1.18974
1634.44;  503.250;   26.750; 7307.250; 1.18410
1638.23;  487.250;   18.750; 7114.250; 1.18027
1642.01;  490.250;   39.750; 6938.250; 1.18506
1645.80;  487.250;   42.750; 6743.250; 1.17824
1649.58;  472.250;   38.750; 6531.250; 1.17542
1653.35;  475.250;   44.750; 6309.250; 1.16291
1657.13;  423.250;   36.750; 6064.250; 1.19299
1660.90;  426.250;   34.750; 5808.250; 1.16871
1664.67;  399.250;   28.750; 5491.250; 1.16860
1668.43;  379.250;   24.750; 5119.250; 1.15749
1672.19;  375.250;   35.750; 4656.250; 1.13385
1675.95;  317.250;   31.750; 4113.250; 1.15521
1679.70;  278.250;   46.750; 3563.250; 1.18156
1683.46;  249.250;   23.750; 3047.250; 1.12736
1687.20;  221.250;   39.750; 2617.250; 1.15232
1690.95;  205.250;   36.750; 2243.250; 1.11710
1694.69;  180.250;   56.750; 1964.250; 1.18880
1698.43;  166.250;   22.750; 1699.250; 1.06755
1702.16;  150.250;   44.750; 1533.250; 1.14950
1705.89;  152.250;   30.750; 1372.250; 1.04301
1709.62;  138.250;   25.750; 1277.250; 1.04628
1713.35;  143.250;   17.750; 1187.250; 0.96936
1717.07;  128.250;   42.750; 1123.250; 1.10166
1720.79;  134.250;   41.750; 1064.250; 1.04352
1724.50;  117.250;   44.750; 1019.250; 1.12844
1728.21;  130.250;   29.750;  974.250; 0.97304
1731.92;  121.250;   25.750;  931.250; 0.97689
1735.63;  111.250;   34.750;  925.250; 1.06597
1739.33;  126.250;   23.750;  909.250; 0.93646
1743.02;  108.250;   21.750;  865.250; 0.98907
1746.72;  122.250;   33.750;  872.250; 0.97656
1750.41;  134.250;   37.750;  865.250; 0.93324
1754.10;  119.250;   44.750;  846.250; 1.03175

