
Integration time [ms]:   3.780
Averaging Nr. [scans]: 1
Smoothing Nr. [pixels]: 0
Data measured with spectrometer [name]: 1911294U1
Wave   ;Sample   ;Dark     ;Reference;Absorbance
[nm]   ;[counts] ;[counts] ;[counts] ;[A.U]

 860.61;   52.250;   67.750;  833.250; 5.00000
 864.82;   59.250;   49.750;  998.250; 1.99931
 869.02;   58.250;   59.750; 1169.250; 5.00000
 873.23;   63.250;   54.750; 1288.250; 2.16172
 877.43;   59.250;   53.750; 1415.250; 2.39365
 881.63;   78.250;   54.750; 1540.250; 1.80080
 885.83;   61.250;   49.750; 1684.250; 2.15269
 890.03;   69.250;   28.750; 1796.250; 1.63990
 894.23;   63.250;   40.750; 1929.250; 1.92393
 898.42;   51.250;   37.750; 2071.250; 2.17791
 902.62;   69.250;   56.750; 2213.250; 2.23684
 906.81;   72.250;   35.750; 2337.250; 1.79972
 911.00;   74.250;   53.750; 2523.250; 2.08086
 915.19;   85.250;   45.750; 2712.250; 1.82934
 919.38;   99.250;   47.750; 2963.250; 1.75291
 923.57;  106.250;   53.750; 3292.250; 1.79018
 927.76;  100.250;   40.750; 3728.250; 1.79222
 931.94;  113.250;   39.750; 4163.250; 1.74898
 936.13;  112.250;   53.750; 4579.250; 1.88851
 940.31;  117.250;   50.750; 4873.250; 1.86045
 944.49;  137.250;   63.750; 5167.250; 1.84158
 948.67;  126.250;   49.750; 5411.250; 1.84562
 952.85;  130.250;   50.750; 5679.250; 1.85003
 957.03;  134.250;   47.750; 5965.250; 1.83512
 961.21;  138.250;   58.750; 6236.250; 1.89045
 965.38;  128.250;   44.750; 6471.250; 1.88629
 969.55;  127.250;   37.750; 6719.250; 1.87305
 973.73;  155.250;   56.750; 6971.250; 1.84632
 977.90;  149.250;   42.750; 7222.250; 1.82874
 982.06;  157.250;   44.750; 7469.250; 1.81951
 986.23;  150.250;   51.750; 7739.250; 1.89235
 990.40;  169.250;   61.750; 7985.250; 1.86751
 994.56;  171.250;   65.750; 8243.250; 1.88937
 998.72;  160.250;   58.750; 8450.250; 1.91737
1002.88;  166.250;   57.750; 8670.250; 1.89970
1007.04;  179.250;   52.750; 8879.250; 1.84370
1011.20;  184.250;   49.750; 9068.250; 1.82641
1015.36;  183.250;   45.750; 9257.250; 1.82603
1019.51;  194.250;   60.750; 9402.250; 1.84494
1023.67;  197.250;   69.750; 9574.250; 1.87242
1027.82;  189.250;   61.750; 9729.250; 1.87980
1031.97;  178.250;   55.750; 9851.250; 1.90289
1036.12;  203.250;   49.750;10022.250; 1.81270
1040.27;  185.250;   61.750;10174.250; 1.91319
1044.41;  196.250;   73.750;10320.250; 1.92244
1048.56;  200.250;   53.750;10468.250; 1.85180
1052.70;  203.250;   58.750;10629.250; 1.86423
1056.84;  193.250;   47.750;10798.250; 1.86857
1060.98;  194.250;   67.750;10996.250; 1.93647
1065.11;  214.250;   63.750;11181.250; 1.86847
1069.25;  206.250;   63.750;11391.250; 1.90032
1073.38;  209.250;   56.750;11632.250; 1.88027
1077.52;  230.250;   70.750;11862.250; 1.86881
1081.65;  215.250;   62.750;12105.250; 1.89745
1085.77;  229.250;   60.750;12352.250; 1.86300
1089.90;  225.250;   56.750;12603.250; 1.87192
1094.03;  228.250;   65.750;12857.250; 1.89607
1098.15;  223.250;   68.750;13146.250; 1.92760
1102.27;  235.250;   66.750;13436.250; 1.89952
1106.39;  234.250;   69.750;13733.250; 1.91940
1110.51;  238.250;   69.750;14055.250; 1.91908
1114.63;  238.250;   49.750;14464.250; 1.88349
1118.74;  257.250;   73.750;14874.250; 1.90664
1122.85;  247.250;   70.750;15167.250; 1.93213
1126.96;  245.250;   61.750;15350.250; 1.92073
1131.07;  251.250;   57.750;15457.250; 1.90083
1135.18;  241.250;   63.750;15545.250; 1.94061
1139.29;  228.250;   45.750;15604.250; 1.93070
1143.39;  241.250;   62.750;15613.250; 1.94011
1147.49;  222.250;   71.750;15592.250; 2.01337
1151.59;  217.250;   71.750;15618.250; 2.02877
1155.69;  226.250;   64.750;15618.250; 1.98366
1159.78;  212.250;   61.750;15619.250; 2.01440
1163.88;  224.250;   66.750;15654.250; 1.99550
1167.97;  215.250;   60.750;15657.250; 2.00410
1172.06;  206.250;   60.750;15668.250; 2.03047
1176.15;  211.250;   53.750;15670.250; 1.99630
1180.23;  200.250;   59.750;15679.250; 2.04599
1184.32;  180.250;   50.750;15690.250; 2.08195
1188.40;  209.250;   57.750;15712.250; 2.01423
1192.48;  205.250;   55.750;15725.250; 2.02041
1196.56;  197.250;   53.750;15754.250; 2.03906
1200.64;  214.250;   72.750;15783.250; 2.04543
1204.71;  194.250;   50.750;15806.250; 2.04058
1208.78;  212.250;   69.750;15849.250; 2.04428
1212.85;  210.250;   54.750;15854.250; 2.00691
1216.92;  208.250;   37.750;15840.250; 1.96700
1220.99;  205.250;   49.750;15897.250; 2.00823
1225.05;  213.250;   60.750;15920.250; 2.01702
1229.11;  206.250;   53.750;15924.250; 2.01732
1233.17;  229.250;   58.750;15926.250; 1.96878
1237.23;  208.250;   49.750;15943.250; 2.00119
1241.29;  218.250;   51.750;15960.250; 1.98021
1245.34;  220.250;   79.750;16029.250; 2.05507
1249.39;  221.250;   55.750;16081.250; 1.98601
1253.44;  206.250;   36.750;16122.250; 1.97726
1257.49;  226.250;   73.750;16225.250; 2.02494
1261.53;  221.250;   40.750;16273.250; 1.95391
1265.58;  212.250;   46.750;16338.250; 1.99316
1269.62;  216.250;   46.750;16412.250; 1.98476
1273.65;  213.250;   55.750;16472.250; 2.01800
1277.69;  209.250;   53.750;16552.250; 2.02571
1281.72;  234.250;   65.750;16612.250; 1.99211
1285.76;  234.250;   66.750;16662.250; 1.99598
1289.79;  224.250;   56.750;16697.250; 1.99715
1293.81;  220.250;   44.750;16713.250; 1.97762
1297.84;  210.250;   49.750;16765.250; 2.01764
1301.86;  223.250;   43.750;16807.250; 1.97030
1305.88;  225.250;   58.750;16824.250; 2.00300
1309.90;  214.250;   49.750;16842.250; 2.00895
1313.92;  196.250;   55.750;16828.250; 2.07692
1317.93;  225.250;   65.750;16838.250; 2.02184
1321.94;  203.250;   46.750;16825.250; 2.03024
1325.95;  202.250;   64.750;16797.250; 2.08526
1329.96;  207.250;   63.750;16802.250; 2.06686
1333.96;  190.250;   52.750;16773.250; 2.08495
1337.96;  190.250;   63.750;16776.250; 2.12095
1341.96;  183.250;   46.750;16748.250; 2.08762
1345.96;  189.250;   59.750;16622.250; 2.10686
1349.95;  171.250;   42.750;16410.250; 2.10508
1353.95;  177.250;   67.750;16154.250; 2.16705
1357.94;  161.250;   50.750;15843.250; 2.15509
1361.92;  171.250;   50.750;15571.250; 2.10992
1365.91;  158.250;   46.750;15308.250; 2.13632
1369.89;  153.250;   50.750;15042.250; 2.16512
1373.87;  140.250;   48.750;14460.250; 2.19729
1377.85;  130.250;   60.750;13607.250; 2.28984
1381.82;  117.250;   48.750;12795.250; 2.26970
1385.80;  131.250;   50.750;12441.250; 2.18729
1389.77;  124.250;   54.750;12376.250; 2.24868
1393.74;  114.250;   63.750;12523.250; 2.39221
1397.70;  115.250;   57.750;12861.250; 2.34766
1401.66;   96.250;   57.750;13177.250; 2.53246
1405.62;  103.250;   34.750;13448.250; 2.29185
1409.58;  102.250;   50.750;13653.250; 2.42181
1413.54;   97.250;   50.750;13787.250; 2.47042
1417.49;   89.250;   27.750;13838.250; 2.35133
1421.44;   98.250;   63.750;13894.250; 2.60302
1425.39;   87.250;   54.750;13879.250; 2.62877
1429.33;  111.250;   64.750;13864.250; 2.47241
1433.27;   96.250;   54.750;13809.250; 2.52040
1437.21;   78.250;   48.750;13776.250; 2.66777
1441.15;  121.250;   52.750;13748.250; 2.30089
1445.09;  103.250;   60.750;13691.250; 2.50612
1449.02;   95.250;   57.750;13611.250; 2.55802
1452.95;   96.250;   52.750;13536.250; 2.49131
1456.87;   95.250;   53.750;13439.250; 2.50859
1460.80;   72.250;   43.750;13345.250; 2.66906
1464.72;   99.250;   59.750;13253.250; 2.52376
1468.64;   87.250;   43.750;13131.250; 2.47837
1472.55;   88.250;   63.750;13051.250; 2.72436
1476.47;   89.250;   43.750;12969.250; 2.45344
1480.38;   92.250;   38.750;12870.250; 2.37992
1484.28;   95.250;   54.750;12750.250; 2.49619
1488.19;   79.250;   50.750;12663.250; 2.64596
1492.09;   86.250;   28.750;12533.250; 2.33740
1495.99;   94.250;   58.750;12434.250; 2.54233
1499.89;   78.250;   46.750;12320.250; 2.59066
1503.78;   93.250;   48.750;12228.250; 2.43727
1507.67;   99.250;   52.750;12113.250; 2.41391
1511.56;   81.250;   33.750;11982.250; 2.40062
1515.44;   97.250;   50.750;11884.250; 2.40566
1519.33;   97.250;   48.750;11757.250; 2.38276
1523.21;   94.250;   35.750;11649.250; 2.29781
1527.08;   93.250;   57.750;11506.250; 2.50852
1530.96;   92.250;   39.750;11368.250; 2.33401
1534.83;  102.250;   52.750;11249.250; 2.35448
1538.70;   82.250;   57.750;11082.250; 2.65319
1542.56;   75.250;   28.750;10958.250; 2.37115
1546.42;   88.250;   39.750;10836.250; 2.34754
1550.28;   96.250;   58.750;10683.250; 2.45228
1554.14;   87.250;   39.750;10510.250; 2.34327
1557.99;   83.250;   41.750;10388.250; 2.39675
1561.84;   81.250;   33.750;10234.250; 2.33193
1565.69;   88.250;   40.750;10095.250; 2.32567
1569.54;   76.250;   24.750; 9939.250; 2.28446
1573.38;   73.250;   40.750; 9804.250; 2.47772
1577.22;   85.250;   31.750; 9649.250; 2.25471
1581.05;   82.250;   49.750; 9522.250; 2.46458
1584.89;   90.250;   45.750; 9369.250; 2.32122
1588.72;   88.250;   41.750; 9215.250; 2.29508
1592.54;   86.250;   35.750; 9061.250; 2.25218
1596.37;   80.250;   22.750; 8908.250; 2.18901
1600.19;   83.250;   43.750; 8774.250; 2.34444
1604.01;   77.250;   33.750; 8610.250; 2.29482
1607.82;   76.250;   31.750; 8473.250; 2.27806
1611.63;   71.250;   22.750; 8316.250; 2.23300
1615.44;   74.250;   26.750; 8167.250; 2.23396
1619.25;   79.250;   34.750; 7998.250; 2.25274
1623.05;   56.250;   13.750; 7822.250; 2.26418
1626.85;   80.250;   26.750; 7668.250; 2.15482
1630.64;   73.250;   42.750; 7511.250; 2.38893
1634.44;   73.250;   26.750; 7307.250; 2.19471
1638.23;   63.250;   18.750; 7114.250; 2.20262
1642.01;   60.250;   39.750; 6938.250; 2.52700
1645.80;   74.250;   42.750; 6743.250; 2.32780
1649.58;   68.250;   38.750; 6531.250; 2.34259
1653.35;   64.250;   44.750; 6309.250; 2.50685
1657.13;   63.250;   36.750; 6064.250; 2.35689
1660.90;   66.250;   34.750; 5808.250; 2.26313
1664.67;   65.250;   28.750; 5491.250; 2.17510
1668.43;   68.250;   24.750; 5119.250; 2.06861
1672.19;   74.250;   35.750; 4656.250; 2.07923
1675.95;   63.250;   31.750; 4113.250; 2.11251
1679.70;   49.250;   46.750; 3563.250; 3.14817
1683.46;   52.250;   23.750; 3047.250; 2.02567
1687.20;   52.250;   39.750; 2617.250; 2.31429
1690.95;   59.250;   36.750; 2243.250; 1.99152
1694.69;   55.250;   56.750; 1964.250; 5.00000
1698.43;   48.250;   22.750; 1699.250; 1.81786
1702.16;   56.250;   44.750; 1533.250; 2.11205
1705.89;   44.250;   30.750; 1372.250; 1.99726
1709.62;   33.250;   25.750; 1277.250; 2.22237
1713.35;   57.250;   17.750; 1187.250; 1.47140
1717.07;   34.250;   42.750; 1123.250; 5.00000
1720.79;   44.250;   41.750; 1064.250; 2.61172
1724.50;   58.250;   44.750; 1019.250; 1.85845
1728.21;   48.250;   29.750;  974.250; 1.70803
1731.92;   52.250;   25.750;  931.250; 1.53364
1735.63;   55.250;   34.750;  925.250; 1.63788
1739.33;   62.250;   23.750;  909.250; 1.36173
1743.02;   45.250;   21.750;  865.250; 1.55502
1746.72;   34.250;   33.750;  872.250; 3.22453
1750.41;   48.250;   37.750;  865.250; 1.89658
1754.10;   51.250;   44.750;  846.250; 2.09099

